Study Name	Ge_thermal
Sample Name	100_001_vac_phase
Run Name	spot29
Operator	Cody
Date	8/29/2017
Time	15:41
Sign	FIX
Grating Spacing	09.80um
Channel	3
Number Traces	10000
Files in Batch	1
Batch Number	1
dt	50.000001E-12
time stamp (ms)	15:43:20
	
Time	Amplitude
0.000000E+0	6.714745E-4
5.000000E-11	6.920298E-4
1.000000E-10	7.023075E-4
1.500000E-10	7.091593E-4
2.000000E-10	6.954557E-4
2.500000E-10	6.749003E-4
3.000000E-10	6.509191E-4
3.500000E-10	5.995308E-4
4.000000E-10	5.310130E-4
4.500000E-10	5.001800E-4
5.000000E-10	4.796246E-4
5.500000E-10	4.248104E-4
6.000000E-10	3.871256E-4
6.500000E-10	4.111068E-4
7.000000E-10	4.316622E-4
7.500000E-10	4.419398E-4
8.000000E-10	4.967541E-4
8.500000E-10	5.549942E-4
9.000000E-10	5.686978E-4
9.500000E-10	5.755495E-4
1.000000E-9	6.132343E-4
1.050000E-9	6.337897E-4
1.100000E-9	6.235120E-4
1.150000E-9	6.029567E-4
1.200000E-9	5.721236E-4
1.250000E-9	5.515683E-4
1.300000E-9	5.378647E-4
1.350000E-9	4.796246E-4
1.400000E-9	4.076809E-4
1.450000E-9	3.802738E-4
1.500000E-9	3.562926E-4
1.550000E-9	3.220337E-4
1.600000E-9	3.220337E-4
1.650000E-9	3.288854E-4
1.700000E-9	3.357372E-4
1.750000E-9	3.631444E-4
1.800000E-9	4.076809E-4
1.850000E-9	4.385139E-4
1.900000E-9	4.659211E-4
1.950000E-9	4.864764E-4
2.000000E-9	4.796246E-4
2.050000E-9	4.727728E-4
2.100000E-9	4.830505E-4
2.150000E-9	4.659211E-4
2.200000E-9	4.111068E-4
2.250000E-9	3.528667E-4
2.300000E-9	3.083301E-4
2.350000E-9	2.877748E-4
2.400000E-9	2.877748E-4
2.450000E-9	2.774971E-4
2.500000E-9	2.912007E-4
2.550000E-9	3.494408E-4
2.600000E-9	4.248104E-4
2.650000E-9	5.036058E-4
2.700000E-9	5.961049E-4
2.750000E-9	6.611968E-4
2.800000E-9	6.851780E-4
2.850000E-9	6.851780E-4
2.900000E-9	6.680486E-4
2.950000E-9	6.337897E-4
3.000000E-9	5.515683E-4
3.050000E-9	4.316622E-4
3.100000E-9	2.980524E-4
3.150000E-9	1.849981E-4
3.200000E-9	7.194369E-5
3.250000E-9	-3.425890E-5
3.300000E-9	-7.194369E-5
3.350000E-9	-4.796246E-5
3.400000E-9	-1.370356E-5
3.450000E-9	5.138835E-5
3.500000E-9	1.918498E-4
3.550000E-9	3.597185E-4
3.600000E-9	5.104576E-4
3.650000E-9	6.372156E-4
3.700000E-9	7.434182E-4
3.750000E-9	7.948065E-4
3.800000E-9	8.222136E-4
3.850000E-9	8.290654E-4
3.900000E-9	7.845288E-4
3.950000E-9	7.023075E-4
4.000000E-9	6.132343E-4
4.050000E-9	5.207353E-4
4.100000E-9	4.385139E-4
4.150000E-9	3.665702E-4
4.200000E-9	2.946265E-4
4.250000E-9	2.535159E-4
4.300000E-9	2.432382E-4
4.350000E-9	2.500900E-4
4.400000E-9	3.014783E-4
4.450000E-9	3.734220E-4
4.500000E-9	4.008291E-4
4.550000E-9	4.248104E-4
4.600000E-9	4.933282E-4
4.650000E-9	5.721236E-4
4.700000E-9	6.200861E-4
4.750000E-9	6.406414E-4
4.800000E-9	6.303638E-4
4.850000E-9	5.961049E-4
4.900000E-9	5.686978E-4
4.950000E-9	5.378647E-4
5.000000E-9	5.070317E-4
5.050000E-9	4.727728E-4
5.100000E-9	4.385139E-4
5.150000E-9	4.076809E-4
5.200000E-9	3.802738E-4
5.250000E-9	3.699961E-4
5.300000E-9	3.631444E-4
5.350000E-9	3.562926E-4
5.400000E-9	3.562926E-4
5.450000E-9	3.494408E-4
5.500000E-9	3.254596E-4
5.550000E-9	3.151819E-4
5.600000E-9	3.151819E-4
5.650000E-9	2.809230E-4
5.700000E-9	2.466641E-4
5.750000E-9	2.706453E-4
5.800000E-9	3.117560E-4
5.850000E-9	3.186078E-4
5.900000E-9	3.562926E-4
5.950000E-9	4.453657E-4
6.000000E-9	5.173094E-4
6.050000E-9	5.618460E-4
6.100000E-9	6.337897E-4
6.150000E-9	6.886039E-4
6.200000E-9	6.920298E-4
6.250000E-9	6.577709E-4
6.300000E-9	5.926790E-4
6.350000E-9	5.036058E-4
6.400000E-9	4.042550E-4
6.450000E-9	3.460149E-4
6.500000E-9	3.151819E-4
6.550000E-9	2.912007E-4
6.600000E-9	3.049042E-4
6.650000E-9	3.734220E-4
6.700000E-9	4.419398E-4
6.750000E-9	5.241612E-4
6.800000E-9	6.235120E-4
6.850000E-9	6.749003E-4
6.900000E-9	6.783262E-4
6.950000E-9	6.817521E-4
7.000000E-9	6.714745E-4
7.050000E-9	5.995308E-4
7.100000E-9	5.070317E-4
7.150000E-9	4.350880E-4
7.200000E-9	3.768479E-4
7.250000E-9	3.186078E-4
7.300000E-9	2.980524E-4
7.350000E-9	3.357372E-4
7.400000E-9	3.939774E-4
7.450000E-9	4.522175E-4
7.500000E-9	5.275871E-4
7.550000E-9	6.269379E-4
7.600000E-9	7.125851E-4
7.650000E-9	7.776771E-4
7.700000E-9	8.667502E-4
7.750000E-9	9.866563E-4
7.800000E-9	1.137396E-3
7.850000E-9	1.387485E-3
7.900000E-9	1.815722E-3
7.950000E-9	2.463215E-3
8.000000E-9	3.446445E-3
8.050000E-9	4.888745E-3
8.100000E-9	6.865484E-3
8.150000E-9	9.452031E-3
8.200000E-9	1.275116E-2
8.250000E-9	1.684510E-2
8.300000E-9	2.170987E-2
8.350000E-9	2.725981E-2
8.400000E-9	3.340243E-2
8.450000E-9	3.999727E-2
8.500000E-9	4.679766E-2
8.550000E-9	5.357407E-2
8.600000E-9	6.011067E-2
8.650000E-9	6.614023E-2
8.700000E-9	7.142296E-2
8.750000E-9	7.580810E-2
8.800000E-9	7.917232E-2
8.850000E-9	8.144026E-2
8.900000E-9	8.268043E-2
8.950000E-9	8.305385E-2
9.000000E-9	8.267015E-2
9.050000E-9	8.171090E-2
9.100000E-9	8.049814E-2
9.150000E-9	7.924426E-2
9.200000E-9	7.807946E-2
9.250000E-9	7.718530E-2
9.300000E-9	7.673994E-2
9.350000E-9	7.672966E-2
9.400000E-9	7.713734E-2
9.450000E-9	7.799724E-2
9.500000E-9	7.925112E-2
9.550000E-9	8.075508E-2
9.600000E-9	8.244747E-2
9.650000E-9	8.428375E-2
9.700000E-9	8.612345E-2
9.750000E-9	8.788778E-2
9.800000E-9	8.955619E-2
9.850000E-9	9.108757E-2
9.900000E-9	9.243051E-2
9.950000E-9	9.358161E-2
1.000000E-8	9.454771E-2
1.005000E-8	9.528771E-2
1.010000E-8	9.572280E-2
1.015000E-8	9.585640E-2
1.020000E-8	9.570909E-2
1.025000E-8	9.520206E-2
1.030000E-8	9.431133E-2
1.035000E-8	9.304718E-2
1.040000E-8	9.133766E-2
1.045000E-8	8.913481E-2
1.050000E-8	8.650715E-2
1.055000E-8	8.348209E-2
1.060000E-8	8.002879E-2
1.065000E-8	7.618837E-2
1.070000E-8	7.203277E-2
1.075000E-8	6.759281E-2
1.080000E-8	6.291990E-2
1.085000E-8	5.813050E-2
1.090000E-8	5.328287E-2
1.095000E-8	4.837014E-2
1.100000E-8	4.347112E-2
1.105000E-8	3.868515E-2
1.110000E-8	3.403622E-2
1.115000E-8	2.954830E-2
1.120000E-8	2.532075E-2
1.125000E-8	2.139468E-2
1.130000E-8	1.773926E-2
1.135000E-8	1.439559E-2
1.140000E-8	1.147673E-2
1.145000E-8	8.989536E-3
1.150000E-8	6.930576E-3
1.155000E-8	5.344389E-3
1.160000E-8	4.272085E-3
1.165000E-8	3.689684E-3
1.170000E-8	3.655425E-3
1.175000E-8	4.186438E-3
1.180000E-8	5.241612E-3
1.185000E-8	6.820947E-3
1.190000E-8	8.917592E-3
1.195000E-8	1.149386E-2
1.200000E-8	1.451550E-2
1.205000E-8	1.796537E-2
1.210000E-8	2.177838E-2
1.215000E-8	2.588260E-2
1.220000E-8	3.025404E-2
1.225000E-8	3.483445E-2
1.230000E-8	3.954848E-2
1.235000E-8	4.434472E-2
1.240000E-8	4.921291E-2
1.245000E-8	5.406397E-2
1.250000E-8	5.880883E-2
1.255000E-8	6.340980E-2
1.260000E-8	6.786003E-2
1.265000E-8	7.210128E-2
1.270000E-8	7.608217E-2
1.275000E-8	7.976157E-2
1.280000E-8	8.312237E-2
1.285000E-8	8.614058E-2
1.290000E-8	8.878537E-2
1.295000E-8	9.103618E-2
1.300000E-8	9.291357E-2
1.305000E-8	9.439698E-2
1.310000E-8	9.546585E-2
1.315000E-8	9.616474E-2
1.320000E-8	9.651075E-2
1.325000E-8	9.646964E-2
1.330000E-8	9.606538E-2
1.335000E-8	9.535623E-2
1.340000E-8	9.435587E-2
1.345000E-8	9.307458E-2
1.350000E-8	9.154321E-2
1.355000E-8	8.977888E-2
1.360000E-8	8.780556E-2
1.365000E-8	8.563012E-2
1.370000E-8	8.324913E-2
1.375000E-8	8.068314E-2
1.380000E-8	7.794928E-2
1.385000E-8	7.505783E-2
1.390000E-8	7.201564E-2
1.395000E-8	6.885697E-2
1.400000E-8	6.561265E-2
1.405000E-8	6.227583E-2
1.410000E-8	5.888420E-2
1.415000E-8	5.548914E-2
1.420000E-8	5.211121E-2
1.425000E-8	4.878810E-2
1.430000E-8	4.554378E-2
1.435000E-8	4.238169E-2
1.440000E-8	3.932237E-2
1.445000E-8	3.637953E-2
1.450000E-8	3.353604E-2
1.455000E-8	3.082273E-2
1.460000E-8	2.828072E-2
1.465000E-8	2.588603E-2
1.470000E-8	2.359753E-2
1.475000E-8	2.146663E-2
1.480000E-8	1.955498E-2
1.485000E-8	1.784546E-2
1.490000E-8	1.634835E-2
1.495000E-8	1.511503E-2
1.500000E-8	1.416263E-2
1.505000E-8	1.349458E-2
1.510000E-8	1.314857E-2
1.515000E-8	1.313486E-2
1.520000E-8	1.347745E-2
1.525000E-8	1.422087E-2
1.530000E-8	1.534799E-2
1.535000E-8	1.682112E-2
1.540000E-8	1.866082E-2
1.545000E-8	2.087737E-2
1.550000E-8	2.342966E-2
1.555000E-8	2.629371E-2
1.560000E-8	2.947293E-2
1.565000E-8	3.293651E-2
1.570000E-8	3.663647E-2
1.575000E-8	4.055226E-2
1.580000E-8	4.463592E-2
1.585000E-8	4.882921E-2
1.590000E-8	5.308759E-2
1.595000E-8	5.740079E-2
1.600000E-8	6.173111E-2
1.605000E-8	6.601005E-2
1.610000E-8	7.018964E-2
1.615000E-8	7.424246E-2
1.620000E-8	7.814113E-2
1.625000E-8	8.180683E-2
1.630000E-8	8.519846E-2
1.635000E-8	8.830917E-2
1.640000E-8	9.109099E-2
1.645000E-8	9.348226E-2
1.650000E-8	9.547956E-2
1.655000E-8	9.706917E-2
1.660000E-8	9.818944E-2
1.665000E-8	9.882665E-2
1.670000E-8	9.901165E-2
1.675000E-8	9.873073E-2
1.680000E-8	9.797361E-2
1.685000E-8	9.674714E-2
1.690000E-8	9.507873E-2
1.695000E-8	9.296838E-2
1.700000E-8	9.044692E-2
1.705000E-8	8.753149E-2
1.710000E-8	8.425292E-2
1.715000E-8	8.065230E-2
1.720000E-8	7.680160E-2
1.725000E-8	7.272480E-2
1.730000E-8	6.845271E-2
1.735000E-8	6.406414E-2
1.740000E-8	5.964132E-2
1.745000E-8	5.520479E-2
1.750000E-8	5.080595E-2
1.755000E-8	4.649618E-2
1.760000E-8	4.232002E-2
1.765000E-8	3.831173E-2
1.770000E-8	3.450214E-2
1.775000E-8	3.090495E-2
1.780000E-8	2.752703E-2
1.785000E-8	2.437178E-2
1.790000E-8	2.146320E-2
1.795000E-8	1.881499E-2
1.800000E-8	1.643399E-2
1.805000E-8	1.434420E-2
1.810000E-8	1.257302E-2
1.815000E-8	1.111016E-2
1.820000E-8	9.993321E-3
1.825000E-8	9.270459E-3
1.830000E-8	8.927870E-3
1.835000E-8	8.958703E-3
1.840000E-8	9.400642E-3
1.845000E-8	1.025369E-2
1.850000E-8	1.146303E-2
1.855000E-8	1.300125E-2
1.860000E-8	1.486836E-2
1.865000E-8	1.701640E-2
1.870000E-8	1.938026E-2
1.875000E-8	2.196681E-2
1.880000E-8	2.477604E-2
1.885000E-8	2.775999E-2
1.890000E-8	3.086727E-2
1.895000E-8	3.408418E-2
1.900000E-8	3.742100E-2
1.905000E-8	4.085374E-2
1.910000E-8	4.437898E-2
1.915000E-8	4.797959E-2
1.920000E-8	5.158363E-2
1.925000E-8	5.517739E-2
1.930000E-8	5.876429E-2
1.935000E-8	6.228953E-2
1.940000E-8	6.569144E-2
1.945000E-8	6.897002E-2
1.950000E-8	7.209443E-2
1.955000E-8	7.500986E-2
1.960000E-8	7.768891E-2
1.965000E-8	8.015212E-2
1.970000E-8	8.237210E-2
1.975000E-8	8.432828E-2
1.980000E-8	8.603095E-2
1.985000E-8	8.746297E-2
1.990000E-8	8.858324E-2
1.995000E-8	8.938490E-2
2.000000E-8	8.990221E-2
2.005000E-8	9.009406E-2
2.010000E-8	8.990221E-2
2.015000E-8	8.932666E-2
2.020000E-8	8.841880E-2
2.025000E-8	8.717520E-2
2.030000E-8	8.558901E-2
2.035000E-8	8.366024E-2
2.040000E-8	8.138545E-2
2.045000E-8	7.877834E-2
2.050000E-8	7.592800E-2
2.055000E-8	7.286183E-2
2.060000E-8	6.954557E-2
2.065000E-8	6.601005E-2
2.070000E-8	6.233407E-2
2.075000E-8	5.853818E-2
2.080000E-8	5.464980E-2
2.085000E-8	5.071345E-2
2.090000E-8	4.677710E-2
2.095000E-8	4.287844E-2
2.100000E-8	3.905172E-2
2.105000E-8	3.533806E-2
2.110000E-8	3.174087E-2
2.115000E-8	2.829785E-2
2.120000E-8	2.505353E-2
2.125000E-8	2.202505E-2
2.130000E-8	1.923637E-2
2.135000E-8	1.670807E-2
2.140000E-8	1.447096E-2
2.145000E-8	1.252848E-2
2.150000E-8	1.087378E-2
2.155000E-8	9.541104E-3
2.160000E-8	8.547596E-3
2.165000E-8	7.882973E-3
2.170000E-8	7.560939E-3
2.175000E-8	7.598624E-3
2.180000E-8	7.999453E-3
2.185000E-8	8.763427E-3
2.190000E-8	9.907674E-3
2.195000E-8	1.144590E-2
2.200000E-8	1.334384E-2
2.205000E-8	1.559808E-2
2.210000E-8	1.819833E-2
2.215000E-8	2.110006E-2
2.220000E-8	2.426215E-2
2.225000E-8	2.764351E-2
2.230000E-8	3.121328E-2
2.235000E-8	3.495093E-2
2.240000E-8	3.878108E-2
2.245000E-8	4.264205E-2
2.250000E-8	4.652016E-2
2.255000E-8	5.037429E-2
2.260000E-8	5.415647E-2
2.265000E-8	5.783930E-2
2.270000E-8	6.139880E-2
2.275000E-8	6.482812E-2
2.280000E-8	6.806558E-2
2.285000E-8	7.107352E-2
2.290000E-8	7.384506E-2
2.295000E-8	7.635966E-2
2.300000E-8	7.857622E-2
2.305000E-8	8.048786E-2
2.310000E-8	8.208775E-2
2.315000E-8	8.334505E-2
2.320000E-8	8.422893E-2
2.325000E-8	8.477022E-2
2.330000E-8	8.495865E-2
2.335000E-8	8.475310E-2
2.340000E-8	8.417755E-2
2.345000E-8	8.329024E-2
2.350000E-8	8.208090E-2
2.355000E-8	8.053925E-2
2.360000E-8	7.870640E-2
2.365000E-8	7.659605E-2
2.370000E-8	7.421848E-2
2.375000E-8	7.163194E-2
2.380000E-8	6.884669E-2
2.385000E-8	6.583876E-2
2.390000E-8	6.266981E-2
2.395000E-8	5.938780E-2
2.400000E-8	5.598932E-2
2.405000E-8	5.249149E-2
2.410000E-8	4.897652E-2
2.415000E-8	4.547869E-2
2.420000E-8	4.199456E-2
2.425000E-8	3.856182E-2
2.430000E-8	3.520787E-2
2.435000E-8	3.195328E-2
2.440000E-8	2.883572E-2
2.445000E-8	2.589630E-2
2.450000E-8	2.313846E-2
2.455000E-8	2.056219E-2
2.460000E-8	1.820518E-2
2.465000E-8	1.609141E-2
2.470000E-8	1.423457E-2
2.475000E-8	1.262441E-2
2.480000E-8	1.128831E-2
2.485000E-8	1.021600E-2
2.490000E-8	9.397217E-3
2.495000E-8	8.866204E-3
2.500000E-8	8.643521E-3
2.505000E-8	8.701761E-3
2.510000E-8	9.040924E-3
2.515000E-8	9.688417E-3
2.520000E-8	1.063739E-2
2.525000E-8	1.188441E-2
2.530000E-8	1.343292E-2
2.535000E-8	1.524521E-2
2.540000E-8	1.730760E-2
2.545000E-8	1.964063E-2
2.550000E-8	2.221005E-2
2.555000E-8	2.496104E-2
2.560000E-8	2.788675E-2
2.565000E-8	3.096319E-2
2.570000E-8	3.413557E-2
2.575000E-8	3.739016E-2
2.580000E-8	4.070985E-2
2.585000E-8	4.405695E-2
2.590000E-8	4.738006E-2
2.595000E-8	5.065864E-2
2.600000E-8	5.389953E-2
2.605000E-8	5.708903E-2
2.610000E-8	6.017233E-2
2.615000E-8	6.312888E-2
2.620000E-8	6.596209E-2
2.625000E-8	6.862400E-2
2.630000E-8	7.108379E-2
2.635000E-8	7.334146E-2
2.640000E-8	7.536616E-2
2.645000E-8	7.708253E-2
2.650000E-8	7.847001E-2
2.655000E-8	7.955602E-2
2.660000E-8	8.030972E-2
2.665000E-8	8.067971E-2
2.670000E-8	8.068314E-2
2.675000E-8	8.034740E-2
2.680000E-8	7.965880E-2
2.685000E-8	7.862418E-2
2.690000E-8	7.726410E-2
2.695000E-8	7.559569E-2
2.700000E-8	7.363266E-2
2.705000E-8	7.137499E-2
2.710000E-8	6.884669E-2
2.715000E-8	6.607514E-2
2.720000E-8	6.307406E-2
2.725000E-8	5.986400E-2
2.730000E-8	5.648608E-2
2.735000E-8	5.298139E-2
2.740000E-8	4.936708E-2
2.745000E-8	4.570480E-2
2.750000E-8	4.205280E-2
2.755000E-8	3.841108E-2
2.760000E-8	3.480019E-2
2.765000E-8	3.130236E-2
2.770000E-8	2.796554E-2
2.775000E-8	2.479659E-2
2.780000E-8	2.183662E-2
2.785000E-8	1.912674E-2
2.790000E-8	1.666010E-2
2.795000E-8	1.446068E-2
2.800000E-8	1.254561E-2
2.805000E-8	1.091146E-2
2.810000E-8	9.575363E-3
2.815000E-8	8.547596E-3
2.820000E-8	7.790474E-3
2.825000E-8	7.321127E-3
2.830000E-8	7.160110E-3
2.835000E-8	7.293720E-3
2.840000E-8	7.704827E-3
2.845000E-8	8.383153E-3
2.850000E-8	9.301292E-3
2.855000E-8	1.046609E-2
2.860000E-8	1.191182E-2
2.865000E-8	1.363162E-2
2.870000E-8	1.557067E-2
2.875000E-8	1.774268E-2
2.880000E-8	2.016479E-2
2.885000E-8	2.279587E-2
2.890000E-8	2.558797E-2
2.895000E-8	2.852396E-2
2.900000E-8	3.159013E-2
2.905000E-8	3.473853E-2
2.910000E-8	3.789720E-2
2.915000E-8	4.103874E-2
2.920000E-8	4.417000E-2
2.925000E-8	4.723960E-2
2.930000E-8	5.016531E-2
2.935000E-8	5.296769E-2
2.940000E-8	5.567414E-2
2.945000E-8	5.825384E-2
2.950000E-8	6.065538E-2
2.955000E-8	6.290277E-2
2.960000E-8	6.499256E-2
2.965000E-8	6.690763E-2
2.970000E-8	6.864799E-2
2.975000E-8	7.021019E-2
2.980000E-8	7.154629E-2
2.985000E-8	7.262544E-2
2.990000E-8	7.344423E-2
2.995000E-8	7.397867E-2
3.000000E-8	7.420478E-2
3.005000E-8	7.414654E-2
3.010000E-8	7.377997E-2
3.015000E-8	7.309137E-2
3.020000E-8	7.208415E-2
3.025000E-8	7.080287E-2
3.030000E-8	6.924409E-2
3.035000E-8	6.736670E-2
3.040000E-8	6.522210E-2
3.045000E-8	6.287194E-2
3.050000E-8	6.031622E-2
3.055000E-8	5.757551E-2
3.060000E-8	5.471832E-2
3.065000E-8	5.175835E-2
3.070000E-8	4.866819E-2
3.075000E-8	4.550610E-2
3.080000E-8	4.231659E-2
3.085000E-8	3.910311E-2
3.090000E-8	3.591361E-2
3.095000E-8	3.280975E-2
3.100000E-8	2.976756E-2
3.105000E-8	2.682129E-2
3.110000E-8	2.404290E-2
3.115000E-8	2.141524E-2
3.120000E-8	1.891091E-2
3.125000E-8	1.660186E-2
3.130000E-8	1.451550E-2
3.135000E-8	1.261070E-2
3.140000E-8	1.092516E-2
3.145000E-8	9.513697E-3
3.150000E-8	8.366024E-3
3.155000E-8	7.492422E-3
3.160000E-8	6.910020E-3
3.165000E-8	6.611968E-3
3.170000E-8	6.615394E-3
3.175000E-8	6.957983E-3
3.180000E-8	7.581495E-3
3.185000E-8	8.485930E-3
3.190000E-8	9.705547E-3
3.195000E-8	1.121294E-2
3.200000E-8	1.293616E-2
3.205000E-8	1.488207E-2
3.210000E-8	1.705066E-2
3.215000E-8	1.940082E-2
3.220000E-8	2.190857E-2
3.225000E-8	2.454650E-2
3.230000E-8	2.729749E-2
3.235000E-8	3.015468E-2
3.240000E-8	3.308725E-2
3.245000E-8	3.604379E-2
3.250000E-8	3.903117E-2
3.255000E-8	4.203567E-2
3.260000E-8	4.499907E-2
3.265000E-8	4.788709E-2
3.270000E-8	5.071003E-2
3.275000E-8	5.343018E-2
3.280000E-8	5.598590E-2
3.285000E-8	5.835319E-2
3.290000E-8	6.054918E-2
3.295000E-8	6.254990E-2
3.300000E-8	6.431423E-2
3.305000E-8	6.583533E-2
3.310000E-8	6.711661E-2
3.315000E-8	6.814438E-2
3.320000E-8	6.890493E-2
3.325000E-8	6.940853E-2
3.330000E-8	6.963464E-2
3.335000E-8	6.960038E-2
3.340000E-8	6.929890E-2
3.345000E-8	6.872336E-2
3.350000E-8	6.787373E-2
3.355000E-8	6.675347E-2
3.360000E-8	6.536256E-2
3.365000E-8	6.370443E-2
3.370000E-8	6.180648E-2
3.375000E-8	5.967901E-2
3.380000E-8	5.736653E-2
3.385000E-8	5.487933E-2
3.390000E-8	5.222084E-2
3.395000E-8	4.944587E-2
3.400000E-8	4.659896E-2
3.405000E-8	4.368010E-2
3.410000E-8	4.072356E-2
3.415000E-8	3.777386E-2
3.420000E-8	3.485843E-2
3.425000E-8	3.199439E-2
3.430000E-8	2.920571E-2
3.435000E-8	2.651982E-2
3.440000E-8	2.396068E-2
3.445000E-8	2.155913E-2
3.450000E-8	1.931517E-2
3.455000E-8	1.723908E-2
3.460000E-8	1.534114E-2
3.465000E-8	1.364189E-2
3.470000E-8	1.216191E-2
3.475000E-8	1.090118E-2
3.480000E-8	9.839156E-3
3.485000E-8	8.996387E-3
3.490000E-8	8.396857E-3
3.495000E-8	8.040564E-3
3.500000E-8	7.930936E-3
3.505000E-8	8.071397E-3
3.510000E-8	8.492782E-3
3.515000E-8	9.167682E-3
3.520000E-8	1.005841E-2
3.525000E-8	1.118896E-2
3.530000E-8	1.258329E-2
3.535000E-8	1.418319E-2
3.540000E-8	1.595780E-2
3.545000E-8	1.790370E-2
3.550000E-8	2.000035E-2
3.555000E-8	2.222032E-2
3.560000E-8	2.452595E-2
3.565000E-8	2.690009E-2
3.570000E-8	2.933590E-2
3.575000E-8	3.181967E-2
3.580000E-8	3.434112E-2
3.585000E-8	3.688998E-2
3.590000E-8	3.945940E-2
3.595000E-8	4.201169E-2
3.600000E-8	4.452287E-2
3.605000E-8	4.699293E-2
3.610000E-8	4.941161E-2
3.615000E-8	5.173779E-2
3.620000E-8	5.395434E-2
3.625000E-8	5.603043E-2
3.630000E-8	5.792152E-2
3.635000E-8	5.961049E-2
3.640000E-8	6.111103E-2
3.645000E-8	6.237176E-2
3.650000E-8	6.334471E-2
3.655000E-8	6.405387E-2
3.660000E-8	6.449923E-2
3.665000E-8	6.464655E-2
3.670000E-8	6.448896E-2
3.675000E-8	6.404702E-2
3.680000E-8	6.333100E-2
3.685000E-8	6.237518E-2
3.690000E-8	6.118982E-2
3.695000E-8	5.978521E-2
3.700000E-8	5.819560E-2
3.705000E-8	5.640385E-2
3.710000E-8	5.444082E-2
3.715000E-8	5.236473E-2
3.720000E-8	5.017216E-2
3.725000E-8	4.783228E-2
3.730000E-8	4.538962E-2
3.735000E-8	4.289214E-2
3.740000E-8	4.032958E-2
3.745000E-8	3.770192E-2
3.750000E-8	3.506399E-2
3.755000E-8	3.245346E-2
3.760000E-8	2.986691E-2
3.765000E-8	2.732147E-2
3.770000E-8	2.485826E-2
3.775000E-8	2.251152E-2
3.780000E-8	2.031210E-2
3.785000E-8	1.824629E-2
3.790000E-8	1.631409E-2
3.795000E-8	1.454976E-2
3.800000E-8	1.298070E-2
3.805000E-8	1.163090E-2
3.810000E-8	1.049008E-2
3.815000E-8	9.571937E-3
3.820000E-8	8.890185E-3
3.825000E-8	8.455097E-3
3.830000E-8	8.283802E-3
3.835000E-8	8.369450E-3
3.840000E-8	8.712039E-3
3.845000E-8	9.301292E-3
3.850000E-8	1.014406E-2
3.855000E-8	1.123007E-2
3.860000E-8	1.252848E-2
3.865000E-8	1.403245E-2
3.870000E-8	1.570428E-2
3.875000E-8	1.749945E-2
3.880000E-8	1.939054E-2
3.885000E-8	2.136385E-2
3.890000E-8	2.342966E-2
3.895000E-8	2.555371E-2
3.900000E-8	2.769832E-2
3.905000E-8	2.987719E-2
3.910000E-8	3.208003E-2
3.915000E-8	3.428288E-2
3.920000E-8	3.646517E-2
3.925000E-8	3.864747E-2
3.930000E-8	4.081948E-2
3.935000E-8	4.292298E-2
3.940000E-8	4.495453E-2
3.945000E-8	4.694155E-2
3.950000E-8	4.883606E-2
3.955000E-8	5.059012E-2
3.960000E-8	5.221057E-2
3.965000E-8	5.371796E-2
3.970000E-8	5.506433E-2
3.975000E-8	5.621543E-2
3.980000E-8	5.715755E-2
3.985000E-8	5.789754E-2
3.990000E-8	5.841485E-2
3.995000E-8	5.869578E-2
4.000000E-8	5.874031E-2
4.005000E-8	5.855531E-2
4.010000E-8	5.811680E-2
4.015000E-8	5.745560E-2
4.020000E-8	5.657515E-2
4.025000E-8	5.546173E-2
4.030000E-8	5.413934E-2
4.035000E-8	5.266278E-2
4.040000E-8	5.101150E-2
4.045000E-8	4.918550E-2
4.050000E-8	4.726358E-2
4.055000E-8	4.525258E-2
4.060000E-8	4.313881E-2
4.065000E-8	4.098050E-2
4.070000E-8	3.879478E-2
4.075000E-8	3.656110E-2
4.080000E-8	3.430686E-2
4.085000E-8	3.208003E-2
4.090000E-8	2.984978E-2
4.095000E-8	2.764351E-2
4.100000E-8	2.548862E-2
4.105000E-8	2.336457E-2
4.110000E-8	2.129191E-2
4.115000E-8	1.932202E-2
4.120000E-8	1.747889E-2
4.125000E-8	1.577280E-2
4.130000E-8	1.423115E-2
4.135000E-8	1.285737E-2
4.140000E-8	1.167201E-2
4.145000E-8	1.070591E-2
4.150000E-8	9.959063E-3
4.155000E-8	9.424624E-3
4.160000E-8	9.123145E-3
4.165000E-8	9.054628E-3
4.170000E-8	9.171108E-3
4.175000E-8	9.510271E-3
4.180000E-8	1.008239E-2
4.185000E-8	1.082924E-2
4.190000E-8	1.174395E-2
4.195000E-8	1.286422E-2
4.200000E-8	1.413865E-2
4.205000E-8	1.553641E-2
4.210000E-8	1.708491E-2
4.215000E-8	1.876703E-2
4.220000E-8	2.053821E-2
4.225000E-8	2.240875E-2
4.230000E-8	2.436150E-2
4.235000E-8	2.638278E-2
4.240000E-8	2.847600E-2
4.245000E-8	3.062746E-2
4.250000E-8	3.278919E-2
4.255000E-8	3.495778E-2
4.260000E-8	3.713322E-2
4.265000E-8	3.925385E-2
4.270000E-8	4.126827E-2
4.275000E-8	4.318677E-2
4.280000E-8	4.499221E-2
4.285000E-8	4.664692E-2
4.290000E-8	4.812690E-2
4.295000E-8	4.941161E-2
4.300000E-8	5.053873E-2
4.305000E-8	5.149455E-2
4.310000E-8	5.223797E-2
4.315000E-8	5.279982E-2
4.320000E-8	5.323148E-2
4.325000E-8	5.351240E-2
4.330000E-8	5.361518E-2
4.335000E-8	5.355351E-2
4.340000E-8	5.333768E-2
4.345000E-8	5.294028E-2
4.350000E-8	5.236130E-2
4.355000E-8	5.159390E-2
4.360000E-8	5.063808E-2
4.365000E-8	4.949041E-2
4.370000E-8	4.816801E-2
4.375000E-8	4.666405E-2
4.380000E-8	4.499221E-2
4.385000E-8	4.320047E-2
4.390000E-8	4.129911E-2
4.395000E-8	3.933264E-2
4.400000E-8	3.733535E-2
4.405000E-8	3.532093E-2
4.410000E-8	3.326539E-2
4.415000E-8	3.120301E-2
4.420000E-8	2.919886E-2
4.425000E-8	2.724953E-2
4.430000E-8	2.531733E-2
4.435000E-8	2.342624E-2
4.440000E-8	2.162079E-2
4.445000E-8	1.988387E-2
4.450000E-8	1.823601E-2
4.455000E-8	1.670464E-2
4.460000E-8	1.526577E-2
4.465000E-8	1.396735E-2
4.470000E-8	1.285051E-2
4.475000E-8	1.188784E-2
4.480000E-8	1.110674E-2
4.485000E-8	1.055517E-2
4.490000E-8	1.023999E-2
4.495000E-8	1.012693E-2
4.500000E-8	1.021943E-2
4.505000E-8	1.051748E-2
4.510000E-8	1.098340E-2
4.515000E-8	1.163432E-2
4.520000E-8	1.247024E-2
4.525000E-8	1.342606E-2
4.530000E-8	1.449152E-2
4.535000E-8	1.569743E-2
4.540000E-8	1.701640E-2
4.545000E-8	1.840731E-2
4.550000E-8	1.987359E-2
4.555000E-8	2.143579E-2
4.560000E-8	2.308707E-2
4.565000E-8	2.477946E-2
4.570000E-8	2.649926E-2
4.575000E-8	2.825332E-2
4.580000E-8	3.003820E-2
4.585000E-8	3.180254E-2
4.590000E-8	3.353946E-2
4.595000E-8	3.524898E-2
4.600000E-8	3.692082E-2
4.605000E-8	3.853099E-2
4.610000E-8	4.006578E-2
4.615000E-8	4.151494E-2
4.620000E-8	4.284761E-2
4.625000E-8	4.406037E-2
4.630000E-8	4.516694E-2
4.635000E-8	4.615359E-2
4.640000E-8	4.697923E-2
4.645000E-8	4.767469E-2
4.650000E-8	4.823311E-2
4.655000E-8	4.860653E-2
4.660000E-8	4.880866E-2
4.665000E-8	4.885319E-2
4.670000E-8	4.870931E-2
4.675000E-8	4.837357E-2
4.680000E-8	4.789737E-2
4.685000E-8	4.726015E-2
4.690000E-8	4.644479E-2
4.695000E-8	4.550952E-2
4.700000E-8	4.443379E-2
4.705000E-8	4.321075E-2
4.710000E-8	4.188836E-2
4.715000E-8	4.047347E-2
4.720000E-8	3.892839E-2
4.725000E-8	3.731479E-2
4.730000E-8	3.565666E-2
4.735000E-8	3.392659E-2
4.740000E-8	3.215540E-2
4.745000E-8	3.037394E-2
4.750000E-8	2.861303E-2
4.755000E-8	2.684527E-2
4.760000E-8	2.509807E-2
4.765000E-8	2.343651E-2
4.770000E-8	2.185718E-2
4.775000E-8	2.033266E-2
4.780000E-8	1.888008E-2
4.785000E-8	1.753028E-2
4.790000E-8	1.631066E-2
4.795000E-8	1.521095E-2
4.800000E-8	1.423115E-2
4.805000E-8	1.336097E-2
4.810000E-8	1.262098E-2
4.815000E-8	1.205913E-2
4.820000E-8	1.164803E-2
4.825000E-8	1.133970E-2
4.830000E-8	1.119581E-2
4.835000E-8	1.125747E-2
4.840000E-8	1.146303E-2
4.845000E-8	1.182275E-2
4.850000E-8	1.236746E-2
4.855000E-8	1.306292E-2
4.860000E-8	1.389198E-2
4.865000E-8	1.487864E-2
4.870000E-8	1.600918E-2
4.875000E-8	1.723223E-2
4.880000E-8	1.853407E-2
4.885000E-8	1.993525E-2
4.890000E-8	2.140154E-2
4.895000E-8	2.289522E-2
4.900000E-8	2.440947E-2
4.905000E-8	2.594769E-2
4.910000E-8	2.749962E-2
4.915000E-8	2.904127E-2
4.920000E-8	3.056922E-2
4.925000E-8	3.210744E-2
4.930000E-8	3.361826E-2
4.935000E-8	3.505371E-2
4.940000E-8	3.643777E-2
4.945000E-8	3.777386E-2
4.950000E-8	3.904830E-2
4.955000E-8	4.023023E-2
4.960000E-8	4.129911E-2
4.965000E-8	4.224122E-2
4.970000E-8	4.306001E-2
4.975000E-8	4.375204E-2
4.980000E-8	4.431731E-2
4.985000E-8	4.472842E-2
4.990000E-8	4.498194E-2
4.995000E-8	4.509157E-2
5.000000E-8	4.502990E-2
5.005000E-8	4.479009E-2
5.010000E-8	4.440639E-2
5.015000E-8	4.388565E-2
5.020000E-8	4.321418E-2
5.025000E-8	4.241937E-2
5.030000E-8	4.153892E-2
5.035000E-8	4.054541E-2
5.040000E-8	3.941487E-2
5.045000E-8	3.820210E-2
5.050000E-8	3.692767E-2
5.055000E-8	3.558472E-2
5.060000E-8	3.418353E-2
5.065000E-8	3.275151E-2
5.070000E-8	3.127838E-2
5.075000E-8	2.978126E-2
5.080000E-8	2.828415E-2
5.085000E-8	2.678361E-2
5.090000E-8	2.532075E-2
5.095000E-8	2.390586E-2
5.100000E-8	2.251152E-2
5.105000E-8	2.116172E-2
5.110000E-8	1.988729E-2
5.115000E-8	1.871564E-2
5.120000E-8	1.760565E-2
5.125000E-8	1.658131E-2
5.130000E-8	1.567002E-2
5.135000E-8	1.487521E-2
5.140000E-8	1.417976E-2
5.145000E-8	1.359736E-2
5.150000E-8	1.312801E-2
5.155000E-8	1.278542E-2
5.160000E-8	1.256274E-2
5.165000E-8	1.247709E-2
5.170000E-8	1.252848E-2
5.175000E-8	1.271005E-2
5.180000E-8	1.303551E-2
5.185000E-8	1.351514E-2
5.190000E-8	1.411467E-2
5.195000E-8	1.480670E-2
5.200000E-8	1.563576E-2
5.205000E-8	1.662242E-2
5.210000E-8	1.769472E-2
5.215000E-8	1.883554E-2
5.220000E-8	2.005859E-2
5.225000E-8	2.133644E-2
5.230000E-8	2.264171E-2
5.235000E-8	2.395382E-2
5.240000E-8	2.528992E-2
5.245000E-8	2.662944E-2
5.250000E-8	2.793813E-2
5.255000E-8	2.922627E-2
5.260000E-8	3.051783E-2
5.265000E-8	3.176143E-2
5.270000E-8	3.294679E-2
5.275000E-8	3.410131E-2
5.280000E-8	3.519417E-2
5.285000E-8	3.618768E-2
5.290000E-8	3.714007E-2
5.295000E-8	3.806164E-2
5.300000E-8	3.885645E-2
5.305000E-8	3.952449E-2
5.310000E-8	4.010347E-2
5.315000E-8	4.054884E-2
5.320000E-8	4.083661E-2
5.325000E-8	4.099763E-2
5.330000E-8	4.100448E-2
5.335000E-8	4.084689E-2
5.340000E-8	4.056254E-2
5.345000E-8	4.015486E-2
5.350000E-8	3.960672E-2
5.355000E-8	3.893867E-2
5.360000E-8	3.815071E-2
5.365000E-8	3.725655E-2
5.370000E-8	3.628360E-2
5.375000E-8	3.525584E-2
5.380000E-8	3.415270E-2
5.385000E-8	3.299817E-2
5.390000E-8	3.182652E-2
5.395000E-8	3.060690E-2
5.400000E-8	2.934960E-2
5.405000E-8	2.811285E-2
5.410000E-8	2.686926E-2
5.415000E-8	2.561538E-2
5.420000E-8	2.440604E-2
5.425000E-8	2.323781E-2
5.430000E-8	2.209014E-2
5.435000E-8	2.098015E-2
5.440000E-8	1.993868E-2
5.445000E-8	1.895888E-2
5.450000E-8	1.802703E-2
5.455000E-8	1.715001E-2
5.460000E-8	1.634835E-2
5.465000E-8	1.562891E-2
5.470000E-8	1.499512E-2
5.475000E-8	1.445383E-2
5.480000E-8	1.401532E-2
5.485000E-8	1.366245E-2
5.490000E-8	1.341236E-2
5.495000E-8	1.329588E-2
5.500000E-8	1.330273E-2
5.505000E-8	1.342264E-2
5.510000E-8	1.367273E-2
5.515000E-8	1.403587E-2
5.520000E-8	1.448809E-2
5.525000E-8	1.503966E-2
5.530000E-8	1.568030E-2
5.535000E-8	1.639288E-2
5.540000E-8	1.718426E-2
5.545000E-8	1.805787E-2
5.550000E-8	1.898286E-2
5.555000E-8	1.996609E-2
5.560000E-8	2.103154E-2
5.565000E-8	2.213810E-2
5.570000E-8	2.323096E-2
5.575000E-8	2.433067E-2
5.580000E-8	2.546807E-2
5.585000E-8	2.660204E-2
5.590000E-8	2.768462E-2
5.595000E-8	2.872609E-2
5.600000E-8	2.974015E-2
5.605000E-8	3.066172E-2
5.610000E-8	3.149763E-2
5.615000E-8	3.232670E-2
5.620000E-8	3.312836E-2
5.625000E-8	3.385122E-2
5.630000E-8	3.453297E-2
5.635000E-8	3.519759E-2
5.640000E-8	3.579713E-2
5.645000E-8	3.632471E-2
5.650000E-8	3.677008E-2
5.655000E-8	3.708869E-2
5.660000E-8	3.727711E-2
5.665000E-8	3.737304E-2
5.670000E-8	3.733878E-2
5.675000E-8	3.714350E-2
5.680000E-8	3.682489E-2
5.685000E-8	3.637953E-2
5.690000E-8	3.579370E-2
5.695000E-8	3.510167E-2
5.700000E-8	3.433770E-2
5.705000E-8	3.351548E-2
5.710000E-8	3.262133E-2
5.715000E-8	3.166208E-2
5.720000E-8	3.067885E-2
5.725000E-8	2.968876E-2
5.730000E-8	2.867470E-2
5.735000E-8	2.764008E-2
5.740000E-8	2.658833E-2
5.745000E-8	2.550575E-2
5.750000E-8	2.441974E-2
5.755000E-8	2.336457E-2
5.760000E-8	2.231967E-2
5.765000E-8	2.127820E-2
5.770000E-8	2.027784E-2
5.775000E-8	1.932887E-2
5.780000E-8	1.840731E-2
5.785000E-8	1.752685E-2
5.790000E-8	1.674575E-2
5.795000E-8	1.606400E-2
5.800000E-8	1.545076E-2
5.805000E-8	1.494031E-2
5.810000E-8	1.457374E-2
5.815000E-8	1.433735E-2
5.820000E-8	1.421059E-2
5.825000E-8	1.419346E-2
5.830000E-8	1.425513E-2
5.835000E-8	1.437846E-2
5.840000E-8	1.460800E-2
5.845000E-8	1.493345E-2
5.850000E-8	1.530003E-2
5.855000E-8	1.570085E-2
5.860000E-8	1.617363E-2
5.865000E-8	1.671492E-2
5.870000E-8	1.730417E-2
5.875000E-8	1.792426E-2
5.880000E-8	1.861629E-2
5.885000E-8	1.940082E-2
5.890000E-8	2.027442E-2
5.895000E-8	2.118228E-2
5.900000E-8	2.212097E-2
5.905000E-8	2.310078E-2
5.910000E-8	2.408743E-2
5.915000E-8	2.503640E-2
5.920000E-8	2.596825E-2
5.925000E-8	2.688296E-2
5.930000E-8	2.775656E-2
5.935000E-8	2.858905E-2
5.940000E-8	2.938386E-2
5.945000E-8	3.013413E-2
5.950000E-8	3.082273E-2
5.955000E-8	3.145652E-2
5.960000E-8	3.204920E-2
5.965000E-8	3.258364E-2
5.970000E-8	3.305984E-2
5.975000E-8	3.346409E-2
5.980000E-8	3.375187E-2
5.985000E-8	3.393687E-2
5.990000E-8	3.406020E-2
5.995000E-8	3.407733E-2
6.000000E-8	3.395742E-2
6.005000E-8	3.373131E-2
6.010000E-8	3.341271E-2
6.015000E-8	3.299475E-2
6.020000E-8	3.250485E-2
6.025000E-8	3.192587E-2
6.030000E-8	3.123727E-2
6.035000E-8	3.051440E-2
6.040000E-8	2.979497E-2
6.045000E-8	2.903784E-2
6.050000E-8	2.823961E-2
6.055000E-8	2.745166E-2
6.060000E-8	2.663630E-2
6.065000E-8	2.580380E-2
6.070000E-8	2.498502E-2
6.075000E-8	2.416280E-2
6.080000E-8	2.333031E-2
6.085000E-8	2.253551E-2
6.090000E-8	2.175783E-2
6.095000E-8	2.096302E-2
6.100000E-8	2.019905E-2
6.105000E-8	1.949331E-2
6.110000E-8	1.880814E-2
6.115000E-8	1.814009E-2
6.120000E-8	1.753371E-2
6.125000E-8	1.697871E-2
6.130000E-8	1.645455E-2
6.135000E-8	1.599548E-2
6.140000E-8	1.560836E-2
6.145000E-8	1.527262E-2
6.150000E-8	1.501910E-2
6.155000E-8	1.487179E-2
6.160000E-8	1.479299E-2
6.165000E-8	1.476559E-2
6.170000E-8	1.483753E-2
6.175000E-8	1.499512E-2
6.180000E-8	1.521095E-2
6.185000E-8	1.548845E-2
6.190000E-8	1.582419E-2
6.195000E-8	1.620103E-2
6.200000E-8	1.664983E-2
6.205000E-8	1.715686E-2
6.210000E-8	1.767759E-2
6.215000E-8	1.824972E-2
6.220000E-8	1.888351E-2
6.225000E-8	1.953443E-2
6.230000E-8	2.022646E-2
6.235000E-8	2.097330E-2
6.240000E-8	2.172357E-2
6.245000E-8	2.248069E-2
6.250000E-8	2.327550E-2
6.255000E-8	2.406345E-2
6.260000E-8	2.480687E-2
6.265000E-8	2.553316E-2
6.270000E-8	2.622861E-2
6.275000E-8	2.687953E-2
6.280000E-8	2.749619E-2
6.285000E-8	2.809572E-2
6.290000E-8	2.863359E-2
6.295000E-8	2.912349E-2
6.300000E-8	2.959284E-2
6.305000E-8	2.999367E-2
6.310000E-8	3.031228E-2
6.315000E-8	3.057264E-2
6.320000E-8	3.075764E-2
6.325000E-8	3.083986E-2
6.330000E-8	3.083644E-2
6.335000E-8	3.073709E-2
6.340000E-8	3.051098E-2
6.345000E-8	3.021292E-2
6.350000E-8	2.987719E-2
6.355000E-8	2.947636E-2
6.360000E-8	2.903099E-2
6.365000E-8	2.855822E-2
6.370000E-8	2.803063E-2
6.375000E-8	2.745508E-2
6.380000E-8	2.688296E-2
6.385000E-8	2.628343E-2
6.390000E-8	2.563936E-2
6.395000E-8	2.498502E-2
6.400000E-8	2.432382E-2
6.405000E-8	2.362494E-2
6.410000E-8	2.292263E-2
6.415000E-8	2.223745E-2
6.420000E-8	2.156598E-2
6.425000E-8	2.092191E-2
6.430000E-8	2.030868E-2
6.435000E-8	1.971942E-2
6.440000E-8	1.916100E-2
6.445000E-8	1.864712E-2
6.450000E-8	1.817435E-2
6.455000E-8	1.771870E-2
6.460000E-8	1.728019E-2
6.465000E-8	1.688279E-2
6.470000E-8	1.652992E-2
6.475000E-8	1.619418E-2
6.480000E-8	1.586872E-2
6.485000E-8	1.559123E-2
6.490000E-8	1.539938E-2
6.495000E-8	1.526919E-2
6.500000E-8	1.520753E-2
6.505000E-8	1.524521E-2
6.510000E-8	1.538225E-2
6.515000E-8	1.560150E-2
6.520000E-8	1.589270E-2
6.525000E-8	1.624557E-2
6.530000E-8	1.666353E-2
6.535000E-8	1.712602E-2
6.540000E-8	1.762963E-2
6.545000E-8	1.818120E-2
6.550000E-8	1.875675E-2
6.555000E-8	1.932202E-2
6.560000E-8	1.990100E-2
6.565000E-8	2.050395E-2
6.570000E-8	2.110348E-2
6.575000E-8	2.166875E-2
6.580000E-8	2.223745E-2
6.585000E-8	2.280958E-2
6.590000E-8	2.337827E-2
6.595000E-8	2.393669E-2
6.600000E-8	2.447456E-2
6.605000E-8	2.498502E-2
6.610000E-8	2.545779E-2
6.615000E-8	2.588945E-2
6.620000E-8	2.629371E-2
6.625000E-8	2.667055E-2
6.630000E-8	2.703027E-2
6.635000E-8	2.735573E-2
6.640000E-8	2.763666E-2
6.645000E-8	2.786962E-2
6.650000E-8	2.805804E-2
6.655000E-8	2.818480E-2
6.660000E-8	2.823276E-2
6.665000E-8	2.819850E-2
6.670000E-8	2.810600E-2
6.675000E-8	2.795526E-2
6.680000E-8	2.771545E-2
6.685000E-8	2.739342E-2
6.690000E-8	2.702000E-2
6.695000E-8	2.658491E-2
6.700000E-8	2.608815E-2
6.705000E-8	2.556057E-2
6.710000E-8	2.501242E-2
6.715000E-8	2.443002E-2
6.720000E-8	2.386132E-2
6.725000E-8	2.333374E-2
6.730000E-8	2.281643E-2
6.735000E-8	2.230254E-2
6.740000E-8	2.182635E-2
6.745000E-8	2.137070E-2
6.750000E-8	2.091506E-2
6.755000E-8	2.046969E-2
6.760000E-8	2.003461E-2
6.765000E-8	1.957896E-2
6.770000E-8	1.910276E-2
6.775000E-8	1.861971E-2
6.780000E-8	1.814694E-2
6.785000E-8	1.769130E-2
6.790000E-8	1.727334E-2
6.795000E-8	1.690677E-2
6.800000E-8	1.659501E-2
6.805000E-8	1.631751E-2
6.810000E-8	1.607085E-2
6.815000E-8	1.589613E-2
6.820000E-8	1.579335E-2
6.825000E-8	1.575567E-2
6.830000E-8	1.576252E-2
6.835000E-8	1.583104E-2
6.840000E-8	1.597493E-2
6.845000E-8	1.616335E-2
6.850000E-8	1.637233E-2
6.855000E-8	1.662584E-2
6.860000E-8	1.691362E-2
6.865000E-8	1.721852E-2
6.870000E-8	1.756111E-2
6.875000E-8	1.791741E-2
6.880000E-8	1.828398E-2
6.885000E-8	1.868480E-2
6.890000E-8	1.912674E-2
6.895000E-8	1.957211E-2
6.900000E-8	1.999692E-2
6.905000E-8	2.046627E-2
6.910000E-8	2.095960E-2
6.915000E-8	2.142894E-2
6.920000E-8	2.187773E-2
6.925000E-8	2.235051E-2
6.930000E-8	2.280958E-2
6.935000E-8	2.320355E-2
6.940000E-8	2.355642E-2
6.945000E-8	2.389216E-2
6.950000E-8	2.420049E-2
6.955000E-8	2.445743E-2
6.960000E-8	2.470752E-2
6.965000E-8	2.493705E-2
6.970000E-8	2.513233E-2
6.975000E-8	2.530020E-2
6.980000E-8	2.547149E-2
6.985000E-8	2.560168E-2
6.990000E-8	2.566677E-2
6.995000E-8	2.570103E-2
7.000000E-8	2.569418E-2
7.005000E-8	2.560853E-2
7.010000E-8	2.548520E-2
7.015000E-8	2.533446E-2
7.020000E-8	2.510492E-2
7.025000E-8	2.482400E-2
7.030000E-8	2.451567E-2
7.035000E-8	2.416280E-2
7.040000E-8	2.379623E-2
7.045000E-8	2.345022E-2
7.050000E-8	2.309393E-2
7.055000E-8	2.271023E-2
7.060000E-8	2.234023E-2
7.065000E-8	2.198736E-2
7.070000E-8	2.161051E-2
7.075000E-8	2.120283E-2
7.080000E-8	2.078830E-2
7.085000E-8	2.033266E-2
7.090000E-8	1.984276E-2
7.095000E-8	1.936656E-2
7.100000E-8	1.890749E-2
7.105000E-8	1.846555E-2
7.110000E-8	1.805101E-2
7.115000E-8	1.766732E-2
7.120000E-8	1.729732E-2
7.125000E-8	1.695130E-2
7.130000E-8	1.664640E-2
7.135000E-8	1.638261E-2
7.140000E-8	1.614965E-2
7.145000E-8	1.594409E-2
7.150000E-8	1.576252E-2
7.155000E-8	1.561521E-2
7.160000E-8	1.550900E-2
7.165000E-8	1.541993E-2
7.170000E-8	1.536512E-2
7.175000E-8	1.537882E-2
7.180000E-8	1.544391E-2
7.185000E-8	1.555354E-2
7.190000E-8	1.573854E-2
7.195000E-8	1.599548E-2
7.200000E-8	1.631751E-2
7.205000E-8	1.667381E-2
7.210000E-8	1.703010E-2
7.215000E-8	1.740010E-2
7.220000E-8	1.780435E-2
7.225000E-8	1.820861E-2
7.230000E-8	1.857518E-2
7.235000E-8	1.893832E-2
7.240000E-8	1.932202E-2
7.245000E-8	1.969544E-2
7.250000E-8	2.006886E-2
7.255000E-8	2.046284E-2
7.260000E-8	2.086710E-2
7.265000E-8	2.128163E-2
7.270000E-8	2.170644E-2
7.275000E-8	2.210384E-2
7.280000E-8	2.246356E-2
7.285000E-8	2.278902E-2
7.290000E-8	2.308365E-2
7.295000E-8	2.332003E-2
7.300000E-8	2.347420E-2
7.305000E-8	2.356327E-2
7.310000E-8	2.359411E-2
7.315000E-8	2.355985E-2
7.320000E-8	2.347762E-2
7.325000E-8	2.339198E-2
7.330000E-8	2.330976E-2
7.335000E-8	2.321041E-2
7.340000E-8	2.311448E-2
7.345000E-8	2.302198E-2
7.350000E-8	2.294319E-2
7.355000E-8	2.286096E-2
7.360000E-8	2.276161E-2
7.365000E-8	2.263486E-2
7.370000E-8	2.247041E-2
7.375000E-8	2.226829E-2
7.380000E-8	2.200107E-2
7.385000E-8	2.168931E-2
7.390000E-8	2.135700E-2
7.395000E-8	2.098700E-2
7.400000E-8	2.056904E-2
7.405000E-8	2.014766E-2
7.410000E-8	1.973998E-2
7.415000E-8	1.933230E-2
7.420000E-8	1.892804E-2
7.425000E-8	1.855462E-2
7.430000E-8	1.822231E-2
7.435000E-8	1.791741E-2
7.440000E-8	1.763991E-2
7.445000E-8	1.739324E-2
7.450000E-8	1.716714E-2
7.455000E-8	1.696158E-2
7.460000E-8	1.679029E-2
7.465000E-8	1.665668E-2
7.470000E-8	1.654020E-2
7.475000E-8	1.642714E-2
7.480000E-8	1.634492E-2
7.485000E-8	1.631066E-2
7.490000E-8	1.629353E-2
7.495000E-8	1.629696E-2
7.500000E-8	1.630724E-2
7.505000E-8	1.631751E-2
7.510000E-8	1.632437E-2
7.515000E-8	1.633464E-2
7.520000E-8	1.635863E-2
7.525000E-8	1.639974E-2
7.530000E-8	1.647168E-2
7.535000E-8	1.657788E-2
7.540000E-8	1.671149E-2
7.545000E-8	1.689992E-2
7.550000E-8	1.712945E-2
7.555000E-8	1.737954E-2
7.560000E-8	1.766732E-2
7.565000E-8	1.799620E-2
7.570000E-8	1.832851E-2
7.575000E-8	1.866425E-2
7.580000E-8	1.899656E-2
7.585000E-8	1.931517E-2
7.590000E-8	1.961322E-2
7.595000E-8	1.988729E-2
7.600000E-8	2.015109E-2
7.605000E-8	2.040460E-2
7.610000E-8	2.063071E-2
7.615000E-8	2.082256E-2
7.620000E-8	2.101784E-2
7.625000E-8	2.120969E-2
7.630000E-8	2.135357E-2
7.635000E-8	2.149061E-2
7.640000E-8	2.162764E-2
7.645000E-8	2.173042E-2
7.650000E-8	2.177838E-2
7.655000E-8	2.178524E-2
7.660000E-8	2.175098E-2
7.665000E-8	2.167903E-2
7.670000E-8	2.159681E-2
7.675000E-8	2.148376E-2
7.680000E-8	2.132617E-2
7.685000E-8	2.115487E-2
7.690000E-8	2.098700E-2
7.695000E-8	2.082599E-2
7.700000E-8	2.067182E-2
7.705000E-8	2.048682E-2
7.710000E-8	2.027099E-2
7.715000E-8	2.006201E-2
7.720000E-8	1.987016E-2
7.725000E-8	1.964748E-2
7.730000E-8	1.939739E-2
7.735000E-8	1.915415E-2
7.740000E-8	1.891091E-2
7.745000E-8	1.866082E-2
7.750000E-8	1.839703E-2
7.755000E-8	1.812981E-2
7.760000E-8	1.786944E-2
7.765000E-8	1.760565E-2
7.770000E-8	1.734186E-2
7.775000E-8	1.709519E-2
7.780000E-8	1.686908E-2
7.785000E-8	1.667038E-2
7.790000E-8	1.647853E-2
7.795000E-8	1.631409E-2
7.800000E-8	1.617020E-2
7.805000E-8	1.606742E-2
7.810000E-8	1.600576E-2
7.815000E-8	1.597150E-2
7.820000E-8	1.596465E-2
7.825000E-8	1.596122E-2
7.830000E-8	1.596465E-2
7.835000E-8	1.599891E-2
7.840000E-8	1.604687E-2
7.845000E-8	1.607428E-2
7.850000E-8	1.608455E-2
7.855000E-8	1.611881E-2
7.860000E-8	1.619761E-2
7.865000E-8	1.629011E-2
7.870000E-8	1.642029E-2
7.875000E-8	1.657788E-2
7.880000E-8	1.676288E-2
7.885000E-8	1.699584E-2
7.890000E-8	1.726649E-2
7.895000E-8	1.754056E-2
7.900000E-8	1.782148E-2
7.905000E-8	1.811953E-2
7.910000E-8	1.839703E-2
7.915000E-8	1.866082E-2
7.920000E-8	1.891434E-2
7.925000E-8	1.909934E-2
7.930000E-8	1.923295E-2
7.935000E-8	1.935628E-2
7.940000E-8	1.946248E-2
7.945000E-8	1.951730E-2
7.950000E-8	1.955155E-2
7.955000E-8	1.960294E-2
7.960000E-8	1.966804E-2
7.965000E-8	1.972285E-2
7.970000E-8	1.976053E-2
7.975000E-8	1.979822E-2
7.980000E-8	1.985646E-2
7.985000E-8	1.992155E-2
7.990000E-8	1.995924E-2
7.995000E-8	1.999349E-2
8.000000E-8	2.002090E-2
8.005000E-8	2.001405E-2
8.010000E-8	1.999007E-2
8.015000E-8	1.994896E-2
8.020000E-8	1.987359E-2
8.025000E-8	1.974683E-2
8.030000E-8	1.959952E-2
8.035000E-8	1.941795E-2
8.040000E-8	1.919869E-2
8.045000E-8	1.895888E-2
8.050000E-8	1.871221E-2
8.055000E-8	1.844842E-2
8.060000E-8	1.820518E-2
8.065000E-8	1.799277E-2
8.070000E-8	1.777352E-2
8.075000E-8	1.756454E-2
8.080000E-8	1.738982E-2
8.085000E-8	1.724936E-2
8.090000E-8	1.714315E-2
8.095000E-8	1.703353E-2
8.100000E-8	1.690334E-2
8.105000E-8	1.679371E-2
8.110000E-8	1.668066E-2
8.115000E-8	1.654362E-2
8.120000E-8	1.640659E-2
8.125000E-8	1.628668E-2
8.130000E-8	1.615307E-2
8.135000E-8	1.602289E-2
8.140000E-8	1.590983E-2
8.145000E-8	1.577965E-2
8.150000E-8	1.562891E-2
8.155000E-8	1.550215E-2
8.160000E-8	1.538225E-2
8.165000E-8	1.525206E-2
8.170000E-8	1.515614E-2
8.175000E-8	1.510132E-2
8.180000E-8	1.505336E-2
8.185000E-8	1.506364E-2
8.190000E-8	1.516299E-2
8.195000E-8	1.533428E-2
8.200000E-8	1.555012E-2
8.205000E-8	1.581733E-2
8.210000E-8	1.611539E-2
8.215000E-8	1.639288E-2
8.220000E-8	1.665668E-2
8.225000E-8	1.691362E-2
8.230000E-8	1.710204E-2
8.235000E-8	1.720482E-2
8.240000E-8	1.728362E-2
8.245000E-8	1.733158E-2
8.250000E-8	1.732130E-2
8.255000E-8	1.728362E-2
8.260000E-8	1.726306E-2
8.265000E-8	1.726649E-2
8.270000E-8	1.729047E-2
8.275000E-8	1.736584E-2
8.280000E-8	1.750972E-2
8.285000E-8	1.770843E-2
8.290000E-8	1.795166E-2
8.295000E-8	1.822916E-2
8.300000E-8	1.850666E-2
8.305000E-8	1.874647E-2
8.310000E-8	1.895545E-2
8.315000E-8	1.912332E-2
8.320000E-8	1.923295E-2
8.325000E-8	1.927406E-2
8.330000E-8	1.925350E-2
8.335000E-8	1.916443E-2
8.340000E-8	1.902054E-2
8.345000E-8	1.883554E-2
8.350000E-8	1.861286E-2
8.355000E-8	1.836620E-2
8.360000E-8	1.812638E-2
8.365000E-8	1.791741E-2
8.370000E-8	1.774268E-2
8.375000E-8	1.758852E-2
8.380000E-8	1.745491E-2
8.385000E-8	1.736241E-2
8.390000E-8	1.731787E-2
8.395000E-8	1.727334E-2
8.400000E-8	1.723565E-2
8.405000E-8	1.722195E-2
8.410000E-8	1.718769E-2
8.415000E-8	1.709862E-2
8.420000E-8	1.699241E-2
8.425000E-8	1.686908E-2
8.430000E-8	1.669779E-2
8.435000E-8	1.649566E-2
8.440000E-8	1.629353E-2
8.445000E-8	1.610168E-2
8.450000E-8	1.591669E-2
8.455000E-8	1.575224E-2
8.460000E-8	1.561863E-2
8.465000E-8	1.549530E-2
8.470000E-8	1.537882E-2
8.475000E-8	1.531030E-2
8.480000E-8	1.530003E-2
8.485000E-8	1.528632E-2
8.490000E-8	1.525549E-2
8.495000E-8	1.523836E-2
8.500000E-8	1.524864E-2
8.505000E-8	1.524521E-2
8.510000E-8	1.524521E-2
8.515000E-8	1.525891E-2
8.520000E-8	1.523151E-2
8.525000E-8	1.517669E-2
8.530000E-8	1.516299E-2
8.535000E-8	1.516984E-2
8.540000E-8	1.516642E-2
8.545000E-8	1.520067E-2
8.550000E-8	1.529660E-2
8.555000E-8	1.540623E-2
8.560000E-8	1.551928E-2
8.565000E-8	1.567687E-2
8.570000E-8	1.587900E-2
8.575000E-8	1.607085E-2
8.580000E-8	1.626955E-2
8.585000E-8	1.648881E-2
8.590000E-8	1.666010E-2
8.595000E-8	1.680057E-2
8.600000E-8	1.695816E-2
8.605000E-8	1.710204E-2
8.610000E-8	1.719797E-2
8.615000E-8	1.727676E-2
8.620000E-8	1.734528E-2
8.625000E-8	1.738297E-2
8.630000E-8	1.741723E-2
8.635000E-8	1.745834E-2
8.640000E-8	1.748232E-2
8.645000E-8	1.749602E-2
8.650000E-8	1.752000E-2
8.655000E-8	1.752343E-2
8.660000E-8	1.751315E-2
8.665000E-8	1.752000E-2
8.670000E-8	1.750972E-2
8.675000E-8	1.748232E-2
8.680000E-8	1.747889E-2
8.685000E-8	1.746861E-2
8.690000E-8	1.743435E-2
8.695000E-8	1.741723E-2
8.700000E-8	1.739324E-2
8.705000E-8	1.734871E-2
8.710000E-8	1.731102E-2
8.715000E-8	1.726649E-2
8.720000E-8	1.719112E-2
8.725000E-8	1.710547E-2
8.730000E-8	1.699584E-2
8.735000E-8	1.684168E-2
8.740000E-8	1.666353E-2
8.745000E-8	1.648538E-2
8.750000E-8	1.627298E-2
8.755000E-8	1.602974E-2
8.760000E-8	1.582076E-2
8.765000E-8	1.563234E-2
8.770000E-8	1.541993E-2
8.775000E-8	1.521095E-2
8.780000E-8	1.503623E-2
8.785000E-8	1.489234E-2
8.790000E-8	1.477586E-2
8.795000E-8	1.467994E-2
8.800000E-8	1.461827E-2
8.805000E-8	1.457374E-2
8.810000E-8	1.456346E-2
8.815000E-8	1.457031E-2
8.820000E-8	1.458744E-2
8.825000E-8	1.462855E-2
8.830000E-8	1.470049E-2
8.835000E-8	1.476901E-2
8.840000E-8	1.481697E-2
8.845000E-8	1.487521E-2
8.850000E-8	1.495401E-2
8.855000E-8	1.500882E-2
8.860000E-8	1.504308E-2
8.865000E-8	1.510475E-2
8.870000E-8	1.519382E-2
8.875000E-8	1.524521E-2
8.880000E-8	1.527947E-2
8.885000E-8	1.535141E-2
8.890000E-8	1.540623E-2
8.895000E-8	1.543706E-2
8.900000E-8	1.548160E-2
8.905000E-8	1.551928E-2
8.910000E-8	1.552613E-2
8.915000E-8	1.555697E-2
8.920000E-8	1.562548E-2
8.925000E-8	1.568030E-2
8.930000E-8	1.574197E-2
8.935000E-8	1.583446E-2
8.940000E-8	1.593381E-2
8.945000E-8	1.602974E-2
8.950000E-8	1.617363E-2
8.955000E-8	1.631409E-2
8.960000E-8	1.640659E-2
8.965000E-8	1.649566E-2
8.970000E-8	1.660872E-2
8.975000E-8	1.666696E-2
8.980000E-8	1.666353E-2
8.985000E-8	1.665668E-2
8.990000E-8	1.662927E-2
8.995000E-8	1.653677E-2
9.000000E-8	1.642029E-2
9.005000E-8	1.629011E-2
9.010000E-8	1.613937E-2
9.015000E-8	1.600576E-2
9.020000E-8	1.588928E-2
9.025000E-8	1.577280E-2
9.030000E-8	1.566660E-2
9.035000E-8	1.560150E-2
9.040000E-8	1.555697E-2
9.045000E-8	1.552271E-2
9.050000E-8	1.551243E-2
9.055000E-8	1.551243E-2
9.060000E-8	1.551928E-2
9.065000E-8	1.552956E-2
9.070000E-8	1.553984E-2
9.075000E-8	1.554326E-2
9.080000E-8	1.551586E-2
9.085000E-8	1.545076E-2
9.090000E-8	1.537197E-2
9.095000E-8	1.528632E-2
9.100000E-8	1.515956E-2
9.105000E-8	1.500882E-2
9.110000E-8	1.487521E-2
9.115000E-8	1.474846E-2
9.120000E-8	1.460800E-2
9.125000E-8	1.449837E-2
9.130000E-8	1.443327E-2
9.135000E-8	1.436476E-2
9.140000E-8	1.432022E-2
9.145000E-8	1.432365E-2
9.150000E-8	1.432365E-2
9.155000E-8	1.429624E-2
9.160000E-8	1.427226E-2
9.165000E-8	1.426541E-2
9.170000E-8	1.424485E-2
9.175000E-8	1.420374E-2
9.180000E-8	1.416606E-2
9.185000E-8	1.412494E-2
9.190000E-8	1.405985E-2
9.195000E-8	1.399476E-2
9.200000E-8	1.397421E-2
9.205000E-8	1.400161E-2
9.210000E-8	1.404272E-2
9.215000E-8	1.410096E-2
9.220000E-8	1.417633E-2
9.225000E-8	1.426198E-2
9.230000E-8	1.435791E-2
9.235000E-8	1.445383E-2
9.240000E-8	1.454633E-2
9.245000E-8	1.465938E-2
9.250000E-8	1.475873E-2
9.255000E-8	1.482383E-2
9.260000E-8	1.488549E-2
9.265000E-8	1.494373E-2
9.270000E-8	1.497457E-2
9.275000E-8	1.498827E-2
9.280000E-8	1.500882E-2
9.285000E-8	1.502938E-2
9.290000E-8	1.506021E-2
9.295000E-8	1.508762E-2
9.300000E-8	1.509790E-2
9.305000E-8	1.509790E-2
9.310000E-8	1.511160E-2
9.315000E-8	1.516299E-2
9.320000E-8	1.521095E-2
9.325000E-8	1.524521E-2
9.330000E-8	1.530003E-2
9.335000E-8	1.537197E-2
9.340000E-8	1.539938E-2
9.345000E-8	1.539595E-2
9.350000E-8	1.540280E-2
9.355000E-8	1.538225E-2
9.360000E-8	1.531715E-2
9.365000E-8	1.526234E-2
9.370000E-8	1.520067E-2
9.375000E-8	1.507734E-2
9.380000E-8	1.493003E-2
9.385000E-8	1.481012E-2
9.390000E-8	1.471762E-2
9.395000E-8	1.463198E-2
9.400000E-8	1.456688E-2
9.405000E-8	1.452920E-2
9.410000E-8	1.450179E-2
9.415000E-8	1.445726E-2
9.420000E-8	1.440244E-2
9.425000E-8	1.436133E-2
9.430000E-8	1.429967E-2
9.435000E-8	1.421402E-2
9.440000E-8	1.413522E-2
9.445000E-8	1.406328E-2
9.450000E-8	1.396735E-2
9.455000E-8	1.387143E-2
9.460000E-8	1.382347E-2
9.465000E-8	1.379606E-2
9.470000E-8	1.376523E-2
9.475000E-8	1.375152E-2
9.480000E-8	1.377208E-2
9.485000E-8	1.379606E-2
9.490000E-8	1.379606E-2
9.495000E-8	1.379949E-2
9.500000E-8	1.378236E-2
9.505000E-8	1.373097E-2
9.510000E-8	1.365902E-2
9.515000E-8	1.358023E-2
9.520000E-8	1.349801E-2
9.525000E-8	1.342264E-2
9.530000E-8	1.336097E-2
9.535000E-8	1.332671E-2
9.540000E-8	1.332329E-2
9.545000E-8	1.335412E-2
9.550000E-8	1.341579E-2
9.555000E-8	1.353569E-2
9.560000E-8	1.370699E-2
9.565000E-8	1.389541E-2
9.570000E-8	1.407698E-2
9.575000E-8	1.427226E-2
9.580000E-8	1.446753E-2
9.585000E-8	1.462512E-2
9.590000E-8	1.474846E-2
9.595000E-8	1.486151E-2
9.600000E-8	1.494031E-2
9.605000E-8	1.495401E-2
9.610000E-8	1.493688E-2
9.615000E-8	1.491975E-2
9.620000E-8	1.487864E-2
9.625000E-8	1.480327E-2
9.630000E-8	1.473133E-2
9.635000E-8	1.466281E-2
9.640000E-8	1.458744E-2
9.645000E-8	1.452577E-2
9.650000E-8	1.446753E-2
9.655000E-8	1.437161E-2
9.660000E-8	1.427568E-2
9.665000E-8	1.422430E-2
9.670000E-8	1.417633E-2
9.675000E-8	1.410782E-2
9.680000E-8	1.404272E-2
9.685000E-8	1.400504E-2
9.690000E-8	1.397078E-2
9.695000E-8	1.394337E-2
9.700000E-8	1.392282E-2
9.705000E-8	1.390226E-2
9.710000E-8	1.388856E-2
9.715000E-8	1.388513E-2
9.720000E-8	1.387828E-2
9.725000E-8	1.384745E-2
9.730000E-8	1.380976E-2
9.735000E-8	1.378578E-2
9.740000E-8	1.375837E-2
9.745000E-8	1.371041E-2
9.750000E-8	1.364875E-2
9.755000E-8	1.359393E-2
9.760000E-8	1.356652E-2
9.765000E-8	1.354254E-2
9.770000E-8	1.348088E-2
9.775000E-8	1.342606E-2
9.780000E-8	1.339866E-2
9.785000E-8	1.337810E-2
9.790000E-8	1.332329E-2
9.795000E-8	1.324792E-2
9.800000E-8	1.319653E-2
9.805000E-8	1.315199E-2
9.810000E-8	1.310060E-2
9.815000E-8	1.308690E-2
9.820000E-8	1.309033E-2
9.825000E-8	1.309718E-2
9.830000E-8	1.313486E-2
9.835000E-8	1.320338E-2
9.840000E-8	1.325819E-2
9.845000E-8	1.330958E-2
9.850000E-8	1.335755E-2
9.855000E-8	1.337467E-2
9.860000E-8	1.338495E-2
9.865000E-8	1.338838E-2
9.870000E-8	1.335755E-2
9.875000E-8	1.330616E-2
9.880000E-8	1.327190E-2
9.885000E-8	1.324792E-2
9.890000E-8	1.321366E-2
9.895000E-8	1.321023E-2
9.900000E-8	1.321023E-2
9.905000E-8	1.320681E-2
9.910000E-8	1.323764E-2
9.915000E-8	1.330273E-2
9.920000E-8	1.336440E-2
9.925000E-8	1.342264E-2
9.930000E-8	1.349116E-2
9.935000E-8	1.354597E-2
9.940000E-8	1.360421E-2
9.945000E-8	1.365217E-2
9.950000E-8	1.369328E-2
9.955000E-8	1.372412E-2
9.960000E-8	1.374467E-2
9.965000E-8	1.373782E-2
9.970000E-8	1.373782E-2
9.975000E-8	1.374125E-2
9.980000E-8	1.370699E-2
9.985000E-8	1.364189E-2
9.990000E-8	1.358365E-2
9.995000E-8	1.351514E-2
1.000000E-7	1.342264E-2
1.000500E-7	1.336097E-2
1.001000E-7	1.331986E-2
1.001500E-7	1.327532E-2
1.002000E-7	1.323764E-2
1.002500E-7	1.322394E-2
1.003000E-7	1.319995E-2
1.003500E-7	1.320681E-2
1.004000E-7	1.324792E-2
1.004500E-7	1.327532E-2
1.005000E-7	1.326162E-2
1.005500E-7	1.324449E-2
1.006000E-7	1.321708E-2
1.006500E-7	1.318625E-2
1.007000E-7	1.316570E-2
1.007500E-7	1.311773E-2
1.008000E-7	1.302523E-2
1.008500E-7	1.291903E-2
1.009000E-7	1.282311E-2
1.009500E-7	1.272718E-2
1.010000E-7	1.263811E-2
1.010500E-7	1.255589E-2
1.011000E-7	1.246339E-2
1.011500E-7	1.235719E-2
1.012000E-7	1.227154E-2
1.012500E-7	1.218932E-2
1.013000E-7	1.209682E-2
1.013500E-7	1.201460E-2
1.014000E-7	1.195636E-2
1.014500E-7	1.193238E-2
1.015000E-7	1.194608E-2
1.015500E-7	1.199062E-2
1.016000E-7	1.206256E-2
1.016500E-7	1.213793E-2
1.017000E-7	1.222015E-2
1.017500E-7	1.231265E-2
1.018000E-7	1.240515E-2
1.018500E-7	1.247709E-2
1.019000E-7	1.254561E-2
1.019500E-7	1.259700E-2
1.020000E-7	1.263811E-2
1.020500E-7	1.268265E-2
1.021000E-7	1.270663E-2
1.021500E-7	1.273061E-2
1.022000E-7	1.275116E-2
1.022500E-7	1.273061E-2
1.023000E-7	1.268265E-2
1.023500E-7	1.263126E-2
1.024000E-7	1.258329E-2
1.024500E-7	1.250450E-2
1.025000E-7	1.240515E-2
1.025500E-7	1.230580E-2
1.026000E-7	1.224071E-2
1.026500E-7	1.220645E-2
1.027000E-7	1.220645E-2
1.027500E-7	1.224413E-2
1.028000E-7	1.231265E-2
1.028500E-7	1.241200E-2
1.029000E-7	1.252848E-2
1.029500E-7	1.267579E-2
1.030000E-7	1.284709E-2
1.030500E-7	1.299098E-2
1.031000E-7	1.308347E-2
1.031500E-7	1.314857E-2
1.032000E-7	1.318625E-2
1.032500E-7	1.316912E-2
1.033000E-7	1.310060E-2
1.033500E-7	1.300125E-2
1.034000E-7	1.290190E-2
1.034500E-7	1.280255E-2
1.035000E-7	1.270320E-2
1.035500E-7	1.262441E-2
1.036000E-7	1.256274E-2
1.036500E-7	1.251478E-2
1.037000E-7	1.249080E-2
1.037500E-7	1.250792E-2
1.038000E-7	1.254561E-2
1.038500E-7	1.256616E-2
1.039000E-7	1.256959E-2
1.039500E-7	1.257644E-2
1.040000E-7	1.259357E-2
1.040500E-7	1.259357E-2
1.041000E-7	1.256959E-2
1.041500E-7	1.255589E-2
1.042000E-7	1.256616E-2
1.042500E-7	1.256616E-2
1.043000E-7	1.255589E-2
1.043500E-7	1.255931E-2
1.044000E-7	1.256616E-2
1.044500E-7	1.253533E-2
1.045000E-7	1.247367E-2
1.045500E-7	1.241200E-2
1.046000E-7	1.234691E-2
1.046500E-7	1.225098E-2
1.047000E-7	1.213108E-2
1.047500E-7	1.200089E-2
1.048000E-7	1.185701E-2
1.048500E-7	1.168571E-2
1.049000E-7	1.151099E-2
1.049500E-7	1.135340E-2
1.050000E-7	1.122322E-2
1.050500E-7	1.114785E-2
1.051000E-7	1.112044E-2
1.051500E-7	1.110674E-2
1.052000E-7	1.114442E-2
1.052500E-7	1.124377E-2
1.053000E-7	1.137396E-2
1.053500E-7	1.151099E-2
1.054000E-7	1.166173E-2
1.054500E-7	1.179191E-2
1.055000E-7	1.190497E-2
1.055500E-7	1.198719E-2
1.056000E-7	1.202487E-2
1.056500E-7	1.203173E-2
1.057000E-7	1.200089E-2
1.057500E-7	1.191182E-2
1.058000E-7	1.179534E-2
1.058500E-7	1.169941E-2
1.059000E-7	1.160692E-2
1.059500E-7	1.149729E-2
1.060000E-7	1.141164E-2
1.060500E-7	1.139108E-2
1.061000E-7	1.140479E-2
1.061500E-7	1.143562E-2
1.062000E-7	1.151784E-2
1.062500E-7	1.162747E-2
1.063000E-7	1.172340E-2
1.063500E-7	1.182617E-2
1.064000E-7	1.192210E-2
1.064500E-7	1.197349E-2
1.065000E-7	1.199062E-2
1.065500E-7	1.199404E-2
1.066000E-7	1.194608E-2
1.066500E-7	1.188099E-2
1.067000E-7	1.181589E-2
1.067500E-7	1.173367E-2
1.068000E-7	1.164460E-2
1.068500E-7	1.160006E-2
1.069000E-7	1.157951E-2
1.069500E-7	1.155895E-2
1.070000E-7	1.157266E-2
1.070500E-7	1.161377E-2
1.071000E-7	1.165488E-2
1.071500E-7	1.169941E-2
1.072000E-7	1.174053E-2
1.072500E-7	1.173367E-2
1.073000E-7	1.171654E-2
1.073500E-7	1.171997E-2
1.074000E-7	1.169599E-2
1.074500E-7	1.166173E-2
1.075000E-7	1.163090E-2
1.075500E-7	1.160006E-2
1.076000E-7	1.158636E-2
1.076500E-7	1.159321E-2
1.077000E-7	1.161034E-2
1.077500E-7	1.163775E-2
1.078000E-7	1.167201E-2
1.078500E-7	1.169599E-2
1.079000E-7	1.171997E-2
1.079500E-7	1.173710E-2
1.080000E-7	1.173025E-2
1.080500E-7	1.170969E-2
1.081000E-7	1.169256E-2
1.081500E-7	1.168229E-2
1.082000E-7	1.166858E-2
1.082500E-7	1.165830E-2
1.083000E-7	1.163775E-2
1.083500E-7	1.160692E-2
1.084000E-7	1.160349E-2
1.084500E-7	1.162747E-2
1.085000E-7	1.164803E-2
1.085500E-7	1.168571E-2
1.086000E-7	1.169941E-2
1.086500E-7	1.167201E-2
1.087000E-7	1.165145E-2
1.087500E-7	1.163432E-2
1.088000E-7	1.157608E-2
1.088500E-7	1.151442E-2
1.089000E-7	1.146303E-2
1.089500E-7	1.137396E-2
1.090000E-7	1.127460E-2
1.090500E-7	1.121979E-2
1.091000E-7	1.118896E-2
1.091500E-7	1.116498E-2
1.092000E-7	1.115812E-2
1.092500E-7	1.114785E-2
1.093000E-7	1.114442E-2
1.093500E-7	1.119238E-2
1.094000E-7	1.125062E-2
1.094500E-7	1.129516E-2
1.095000E-7	1.136710E-2
1.095500E-7	1.145960E-2
1.096000E-7	1.152127E-2
1.096500E-7	1.156580E-2
1.097000E-7	1.164460E-2
1.097500E-7	1.168914E-2
1.098000E-7	1.167543E-2
1.098500E-7	1.163775E-2
1.099000E-7	1.158979E-2
1.099500E-7	1.153497E-2
1.100000E-7	1.148358E-2
1.100500E-7	1.140479E-2
1.101000E-7	1.130544E-2
1.101500E-7	1.122664E-2
1.102000E-7	1.116155E-2
1.102500E-7	1.109646E-2
1.103000E-7	1.107248E-2
1.103500E-7	1.109646E-2
1.104000E-7	1.111016E-2
1.104500E-7	1.112729E-2
1.105000E-7	1.118553E-2
1.105500E-7	1.124035E-2
1.106000E-7	1.128488E-2
1.106500E-7	1.132257E-2
1.107000E-7	1.134997E-2
1.107500E-7	1.136368E-2
1.108000E-7	1.136025E-2
1.108500E-7	1.132599E-2
1.109000E-7	1.127118E-2
1.109500E-7	1.122664E-2
1.110000E-7	1.117183E-2
1.110500E-7	1.108275E-2
1.111000E-7	1.100738E-2
1.111500E-7	1.094572E-2
1.112000E-7	1.088748E-2
1.112500E-7	1.080526E-2
1.113000E-7	1.072646E-2
1.113500E-7	1.066480E-2
1.114000E-7	1.062711E-2
1.114500E-7	1.059970E-2
1.115000E-7	1.059628E-2
1.115500E-7	1.064767E-2
1.116000E-7	1.075044E-2
1.116500E-7	1.087378E-2
1.117000E-7	1.100738E-2
1.117500E-7	1.115127E-2
1.118000E-7	1.127803E-2
1.118500E-7	1.137738E-2
1.119000E-7	1.145618E-2
1.119500E-7	1.149044E-2
1.120000E-7	1.146303E-2
1.120500E-7	1.136368E-2
1.121000E-7	1.121294E-2
1.121500E-7	1.104507E-2
1.122000E-7	1.086692E-2
1.122500E-7	1.067507E-2
1.123000E-7	1.048665E-2
1.123500E-7	1.037360E-2
1.124000E-7	1.035304E-2
1.124500E-7	1.037702E-2
1.125000E-7	1.045239E-2
1.125500E-7	1.057915E-2
1.126000E-7	1.074017E-2
1.126500E-7	1.092516E-2
1.127000E-7	1.112729E-2
1.127500E-7	1.130201E-2
1.128000E-7	1.142534E-2
1.128500E-7	1.150071E-2
1.129000E-7	1.152127E-2
1.129500E-7	1.151099E-2
1.130000E-7	1.144247E-2
1.130500E-7	1.132599E-2
1.131000E-7	1.119238E-2
1.131500E-7	1.105192E-2
1.132000E-7	1.090803E-2
1.132500E-7	1.079841E-2
1.133000E-7	1.072989E-2
1.133500E-7	1.067165E-2
1.134000E-7	1.064424E-2
1.134500E-7	1.067165E-2
1.135000E-7	1.070933E-2
1.135500E-7	1.074702E-2
1.136000E-7	1.079841E-2
1.136500E-7	1.083952E-2
1.137000E-7	1.083952E-2
1.137500E-7	1.083609E-2
1.138000E-7	1.080526E-2
1.138500E-7	1.073331E-2
1.139000E-7	1.066137E-2
1.139500E-7	1.059285E-2
1.140000E-7	1.050720E-2
1.140500E-7	1.044211E-2
1.141000E-7	1.040100E-2
1.141500E-7	1.034619E-2
1.142000E-7	1.029823E-2
1.142500E-7	1.032221E-2
1.143000E-7	1.038045E-2
1.143500E-7	1.042156E-2
1.144000E-7	1.046952E-2
1.144500E-7	1.055174E-2
1.145000E-7	1.062026E-2
1.145500E-7	1.065794E-2
1.146000E-7	1.067850E-2
1.146500E-7	1.065452E-2
1.147000E-7	1.057572E-2
1.147500E-7	1.048665E-2
1.148000E-7	1.039072E-2
1.148500E-7	1.027767E-2
1.149000E-7	1.015091E-2
1.149500E-7	1.004128E-2
1.150000E-7	9.969340E-3
1.150500E-7	9.914526E-3
1.151000E-7	9.893971E-3
1.151500E-7	9.914526E-3
1.152000E-7	9.948785E-3
1.152500E-7	9.979618E-3
1.153000E-7	1.004128E-2
1.153500E-7	1.015776E-2
1.154000E-7	1.026397E-2
1.154500E-7	1.034619E-2
1.155000E-7	1.043526E-2
1.155500E-7	1.051748E-2
1.156000E-7	1.058600E-2
1.156500E-7	1.064081E-2
1.157000E-7	1.068878E-2
1.157500E-7	1.073331E-2
1.158000E-7	1.076072E-2
1.158500E-7	1.077442E-2
1.159000E-7	1.077442E-2
1.159500E-7	1.077785E-2
1.160000E-7	1.076757E-2
1.160500E-7	1.071618E-2
1.161000E-7	1.064767E-2
1.161500E-7	1.058943E-2
1.162000E-7	1.051063E-2
1.162500E-7	1.044211E-2
1.163000E-7	1.039415E-2
1.163500E-7	1.035304E-2
1.164000E-7	1.032221E-2
1.164500E-7	1.032906E-2
1.165000E-7	1.038387E-2
1.165500E-7	1.045239E-2
1.166000E-7	1.051406E-2
1.166500E-7	1.058257E-2
1.167000E-7	1.065794E-2
1.167500E-7	1.070248E-2
1.168000E-7	1.069220E-2
1.168500E-7	1.067165E-2
1.169000E-7	1.064767E-2
1.169500E-7	1.057915E-2
1.170000E-7	1.047637E-2
1.170500E-7	1.038045E-2
1.171000E-7	1.029823E-2
1.171500E-7	1.020573E-2
1.172000E-7	1.010980E-2
1.172500E-7	1.004128E-2
1.173000E-7	1.000702E-2
1.173500E-7	1.001388E-2
1.174000E-7	1.003443E-2
1.174500E-7	1.004128E-2
1.175000E-7	1.006869E-2
1.175500E-7	1.012008E-2
1.176000E-7	1.016462E-2
1.176500E-7	1.019887E-2
1.177000E-7	1.023313E-2
1.177500E-7	1.025369E-2
1.178000E-7	1.028110E-2
1.178500E-7	1.031193E-2
1.179000E-7	1.030508E-2
1.179500E-7	1.027424E-2
1.180000E-7	1.024684E-2
1.180500E-7	1.020915E-2
1.181000E-7	1.014063E-2
1.181500E-7	1.007554E-2
1.182000E-7	1.001388E-2
1.182500E-7	9.941933E-3
1.183000E-7	9.880267E-3
1.183500E-7	9.825453E-3
1.184000E-7	9.791194E-3
1.184500E-7	9.791194E-3
1.185000E-7	9.808323E-3
1.185500E-7	9.842582E-3
1.186000E-7	9.938507E-3
1.186500E-7	1.005156E-2
1.187000E-7	1.015091E-2
1.187500E-7	1.026054E-2
1.188000E-7	1.036674E-2
1.188500E-7	1.043184E-2
1.189000E-7	1.045239E-2
1.189500E-7	1.045924E-2
1.190000E-7	1.044896E-2
1.190500E-7	1.040785E-2
1.191000E-7	1.036674E-2
1.191500E-7	1.036332E-2
1.192000E-7	1.035989E-2
1.192500E-7	1.035304E-2
1.193000E-7	1.035647E-2
1.193500E-7	1.037017E-2
1.194000E-7	1.038045E-2
1.194500E-7	1.037017E-2
1.195000E-7	1.035304E-2
1.195500E-7	1.032906E-2
1.196000E-7	1.029823E-2
1.196500E-7	1.026397E-2
1.197000E-7	1.021258E-2
1.197500E-7	1.016119E-2
1.198000E-7	1.011323E-2
1.198500E-7	1.007212E-2
1.199000E-7	1.002758E-2
1.199500E-7	1.000360E-2
1.200000E-7	1.000017E-2
1.200500E-7	1.000360E-2
1.201000E-7	1.000360E-2
1.201500E-7	9.996747E-3
1.202000E-7	9.993321E-3
1.202500E-7	9.983044E-3
1.203000E-7	9.959063E-3
1.203500E-7	9.931655E-3
1.204000E-7	9.921378E-3
1.204500E-7	9.900822E-3
1.205000E-7	9.883693E-3
1.205500E-7	9.890545E-3
1.206000E-7	9.921378E-3
1.206500E-7	9.976192E-3
1.207000E-7	1.005156E-2
1.207500E-7	1.010980E-2
1.208000E-7	1.015091E-2
1.208500E-7	1.017489E-2
1.209000E-7	1.017489E-2
1.209500E-7	1.015776E-2
1.210000E-7	1.011665E-2
1.210500E-7	1.003101E-2
1.211000E-7	9.907674E-3
1.211500E-7	9.791194E-3
1.212000E-7	9.695269E-3
1.212500E-7	9.599344E-3
1.213000E-7	9.537678E-3
1.213500E-7	9.523974E-3
1.214000E-7	9.513697E-3
1.214500E-7	9.517123E-3
1.215000E-7	9.568511E-3
1.215500E-7	9.647307E-3
1.216000E-7	9.698695E-3
1.216500E-7	9.736380E-3
1.217000E-7	9.780916E-3
1.217500E-7	9.794620E-3
1.218000E-7	9.784342E-3
1.218500E-7	9.756935E-3
1.219000E-7	9.698695E-3
1.219500E-7	9.643881E-3
1.220000E-7	9.595918E-3
1.220500E-7	9.530826E-3
1.221000E-7	9.462308E-3
1.221500E-7	9.404068E-3
1.222000E-7	9.352680E-3
1.222500E-7	9.325273E-3
1.223000E-7	9.349254E-3
1.223500E-7	9.400642E-3
1.224000E-7	9.431475E-3
1.224500E-7	9.445179E-3
1.225000E-7	9.489716E-3
1.225500E-7	9.544530E-3
1.226000E-7	9.558233E-3
1.226500E-7	9.523974E-3
1.227000E-7	9.472586E-3
1.227500E-7	9.414346E-3
1.228000E-7	9.345828E-3
1.228500E-7	9.263607E-3
1.229000E-7	9.150552E-3
1.229500E-7	9.054628E-3
1.230000E-7	9.023795E-3
1.230500E-7	9.020369E-3
1.231000E-7	9.016943E-3
1.231500E-7	9.054628E-3
1.232000E-7	9.133423E-3
1.232500E-7	9.205367E-3
1.233000E-7	9.287588E-3
1.233500E-7	9.400642E-3
1.234000E-7	9.489716E-3
1.234500E-7	9.523974E-3
1.235000E-7	9.541104E-3
1.235500E-7	9.544530E-3
1.236000E-7	9.513697E-3
1.236500E-7	9.438327E-3
1.237000E-7	9.352680E-3
1.237500E-7	9.294440E-3
1.238000E-7	9.243051E-3
1.238500E-7	9.164256E-3
1.239000E-7	9.126571E-3
1.239500E-7	9.140275E-3
1.240000E-7	9.167682E-3
1.240500E-7	9.205367E-3
1.241000E-7	9.260181E-3
1.241500E-7	9.301292E-3
1.242000E-7	9.342402E-3
1.242500E-7	9.404068E-3
1.243000E-7	9.448605E-3
1.243500E-7	9.445179E-3
1.244000E-7	9.434901E-3
1.244500E-7	9.431475E-3
1.245000E-7	9.421198E-3
1.245500E-7	9.410920E-3
1.246000E-7	9.410920E-3
1.246500E-7	9.417772E-3
1.247000E-7	9.431475E-3
1.247500E-7	9.434901E-3
1.248000E-7	9.410920E-3
1.248500E-7	9.359532E-3
1.249000E-7	9.314995E-3
1.249500E-7	9.277310E-3
1.250000E-7	9.208793E-3
1.250500E-7	9.109442E-3
1.251000E-7	9.027220E-3
1.251500E-7	8.982684E-3
1.252000E-7	8.955277E-3
1.252500E-7	8.934721E-3
1.253000E-7	8.958703E-3
1.253500E-7	9.023795E-3
1.254000E-7	9.095738E-3
1.254500E-7	9.177960E-3
1.255000E-7	9.287588E-3
1.255500E-7	9.383513E-3
1.256000E-7	9.448605E-3
1.256500E-7	9.510271E-3
1.257000E-7	9.561659E-3
1.257500E-7	9.558233E-3
1.258000E-7	9.534252E-3
1.258500E-7	9.499993E-3
1.259000E-7	9.431475E-3
1.259500E-7	9.352680E-3
1.260000E-7	9.291014E-3
1.260500E-7	9.236200E-3
1.261000E-7	9.191663E-3
1.261500E-7	9.177960E-3
1.262000E-7	9.164256E-3
1.262500E-7	9.147127E-3
1.263000E-7	9.143701E-3
1.263500E-7	9.157404E-3
1.264000E-7	9.153978E-3
1.264500E-7	9.147127E-3
1.265000E-7	9.167682E-3
1.265500E-7	9.198515E-3
1.266000E-7	9.215644E-3
1.266500E-7	9.229348E-3
1.267000E-7	9.267033E-3
1.267500E-7	9.311569E-3
1.268000E-7	9.345828E-3
1.268500E-7	9.373235E-3
1.269000E-7	9.400642E-3
1.269500E-7	9.431475E-3
1.270000E-7	9.465734E-3
1.270500E-7	9.489716E-3
1.271000E-7	9.489716E-3
1.271500E-7	9.472586E-3
1.272000E-7	9.424624E-3
1.272500E-7	9.345828E-3
1.273000E-7	9.253329E-3
1.273500E-7	9.171108E-3
1.274000E-7	9.102590E-3
1.274500E-7	9.016943E-3
1.275000E-7	8.927870E-3
1.275500E-7	8.859352E-3
1.276000E-7	8.818241E-3
1.276500E-7	8.801112E-3
1.277000E-7	8.807963E-3
1.277500E-7	8.842222E-3
1.278000E-7	8.897037E-3
1.278500E-7	8.955277E-3
1.279000E-7	9.016943E-3
1.279500E-7	9.071757E-3
1.280000E-7	9.102590E-3
1.280500E-7	9.126571E-3
1.281000E-7	9.140275E-3
1.281500E-7	9.136849E-3
1.282000E-7	9.116294E-3
1.282500E-7	9.102590E-3
1.283000E-7	9.082035E-3
1.283500E-7	9.037498E-3
1.284000E-7	8.979258E-3
1.284500E-7	8.934721E-3
1.285000E-7	8.883333E-3
1.285500E-7	8.814815E-3
1.286000E-7	8.763427E-3
1.286500E-7	8.742872E-3
1.287000E-7	8.732594E-3
1.287500E-7	8.712039E-3
1.288000E-7	8.684631E-3
1.288500E-7	8.674354E-3
1.289000E-7	8.698335E-3
1.289500E-7	8.742872E-3
1.290000E-7	8.787408E-3
1.290500E-7	8.821667E-3
1.291000E-7	8.852500E-3
1.291500E-7	8.900462E-3
1.292000E-7	8.955277E-3
1.292500E-7	8.992962E-3
1.293000E-7	9.010091E-3
1.293500E-7	9.013517E-3
1.294000E-7	8.992962E-3
1.294500E-7	8.934721E-3
1.295000E-7	8.883333E-3
1.295500E-7	8.838796E-3
1.296000E-7	8.770279E-3
1.296500E-7	8.691483E-3
1.297000E-7	8.619539E-3
1.297500E-7	8.561299E-3
1.298000E-7	8.516763E-3
1.298500E-7	8.537318E-3
1.299000E-7	8.585281E-3
1.299500E-7	8.592132E-3
1.300000E-7	8.585281E-3
1.300500E-7	8.622965E-3
1.301000E-7	8.640095E-3
1.301500E-7	8.616114E-3
1.302000E-7	8.626391E-3
1.302500E-7	8.650373E-3
1.303000E-7	8.616114E-3
1.303500E-7	8.581855E-3
1.304000E-7	8.585281E-3
1.304500E-7	8.568151E-3
1.305000E-7	8.564725E-3
1.305500E-7	8.602410E-3
1.306000E-7	8.643521E-3
1.306500E-7	8.715464E-3
1.307000E-7	8.842222E-3
1.307500E-7	8.979258E-3
1.308000E-7	9.064905E-3
1.308500E-7	9.147127E-3
1.309000E-7	9.243051E-3
1.309500E-7	9.297866E-3
1.310000E-7	9.291014E-3
1.310500E-7	9.263607E-3
1.311000E-7	9.212218E-3
1.311500E-7	9.112868E-3
1.312000E-7	8.992962E-3
1.312500E-7	8.879907E-3
1.313000E-7	8.753149E-3
1.313500E-7	8.650373E-3
1.314000E-7	8.633243E-3
1.314500E-7	8.653798E-3
1.315000E-7	8.653798E-3
1.315500E-7	8.712039E-3
1.316000E-7	8.855926E-3
1.316500E-7	8.968980E-3
1.317000E-7	9.040924E-3
1.317500E-7	9.109442E-3
1.318000E-7	9.150552E-3
1.318500E-7	9.136849E-3
1.319000E-7	9.106016E-3
1.319500E-7	9.030646E-3
1.320000E-7	8.903888E-3
1.320500E-7	8.794260E-3
1.321000E-7	8.684631E-3
1.321500E-7	8.547596E-3
1.322000E-7	8.417412E-3
1.322500E-7	8.321487E-3
1.323000E-7	8.235840E-3
1.323500E-7	8.187877E-3
1.324000E-7	8.181026E-3
1.324500E-7	8.184451E-3
1.325000E-7	8.191303E-3
1.325500E-7	8.222136E-3
1.326000E-7	8.256395E-3
1.326500E-7	8.287228E-3
1.327000E-7	8.321487E-3
1.327500E-7	8.338617E-3
1.328000E-7	8.335191E-3
1.328500E-7	8.338617E-3
1.329000E-7	8.331765E-3
1.329500E-7	8.280376E-3
1.330000E-7	8.211859E-3
1.330500E-7	8.143341E-3
1.331000E-7	8.057694E-3
1.331500E-7	7.965194E-3
1.332000E-7	7.900103E-3
1.332500E-7	7.872695E-3
1.333000E-7	7.872695E-3
1.333500E-7	7.906954E-3
1.334000E-7	7.972046E-3
1.334500E-7	8.074823E-3
1.335000E-7	8.208433E-3
1.335500E-7	8.335191E-3
1.336000E-7	8.427690E-3
1.336500E-7	8.509911E-3
1.337000E-7	8.557873E-3
1.337500E-7	8.561299E-3
1.338000E-7	8.554448E-3
1.338500E-7	8.540744E-3
1.339000E-7	8.492782E-3
1.339500E-7	8.434541E-3
1.340000E-7	8.403708E-3
1.340500E-7	8.372875E-3
1.341000E-7	8.335191E-3
1.341500E-7	8.314635E-3
1.342000E-7	8.311209E-3
1.342500E-7	8.328339E-3
1.343000E-7	8.328339E-3
1.343500E-7	8.307783E-3
1.344000E-7	8.273525E-3
1.344500E-7	8.232414E-3
1.345000E-7	8.177600E-3
1.345500E-7	8.109082E-3
1.346000E-7	8.043990E-3
1.346500E-7	8.002879E-3
1.347000E-7	7.985750E-3
1.347500E-7	7.961769E-3
1.348000E-7	7.951491E-3
1.348500E-7	7.975472E-3
1.349000E-7	7.996027E-3
1.349500E-7	8.006305E-3
1.350000E-7	8.013157E-3
1.350500E-7	8.020009E-3
1.351000E-7	8.013157E-3
1.351500E-7	8.006305E-3
1.352000E-7	7.996027E-3
1.352500E-7	7.985750E-3
1.353000E-7	7.975472E-3
1.353500E-7	7.965194E-3
1.354000E-7	7.937787E-3
1.354500E-7	7.934361E-3
1.355000E-7	7.961769E-3
1.355500E-7	7.972046E-3
1.356000E-7	7.958343E-3
1.356500E-7	7.958343E-3
1.357000E-7	7.975472E-3
1.357500E-7	7.985750E-3
1.358000E-7	7.996027E-3
1.358500E-7	8.006305E-3
1.359000E-7	8.020009E-3
1.359500E-7	8.061119E-3
1.360000E-7	8.119360E-3
1.360500E-7	8.160470E-3
1.361000E-7	8.191303E-3
1.361500E-7	8.235840E-3
1.362000E-7	8.294080E-3
1.362500E-7	8.328339E-3
1.363000E-7	8.321487E-3
1.363500E-7	8.283802E-3
1.364000E-7	8.235840E-3
1.364500E-7	8.184451E-3
1.365000E-7	8.115934E-3
1.365500E-7	8.043990E-3
1.366000E-7	8.002879E-3
1.366500E-7	7.989176E-3
1.367000E-7	7.992602E-3
1.367500E-7	8.009731E-3
1.368000E-7	8.030286E-3
1.368500E-7	8.061119E-3
1.369000E-7	8.102230E-3
1.369500E-7	8.136489E-3
1.370000E-7	8.160470E-3
1.370500E-7	8.174174E-3
1.371000E-7	8.174174E-3
1.371500E-7	8.143341E-3
1.372000E-7	8.095378E-3
1.372500E-7	8.071397E-3
1.373000E-7	8.037138E-3
1.373500E-7	7.968620E-3
1.374000E-7	7.913806E-3
1.374500E-7	7.896677E-3
1.375000E-7	7.876121E-3
1.375500E-7	7.845288E-3
1.376000E-7	7.824733E-3
1.376500E-7	7.814455E-3
1.377000E-7	7.787048E-3
1.377500E-7	7.756215E-3
1.378000E-7	7.701401E-3
1.378500E-7	7.612328E-3
1.379000E-7	7.523255E-3
1.379500E-7	7.413626E-3
1.380000E-7	7.290294E-3
1.380500E-7	7.173814E-3
1.381000E-7	7.084741E-3
1.381500E-7	7.002519E-3
1.382000E-7	6.920298E-3
1.382500E-7	6.892891E-3
1.383000E-7	6.923724E-3
1.383500E-7	6.978538E-3
1.384000E-7	7.064185E-3
1.384500E-7	7.190943E-3
1.385000E-7	7.327979E-3
1.385500E-7	7.441033E-3
1.386000E-7	7.547236E-3
1.386500E-7	7.653438E-3
1.387000E-7	7.732234E-3
1.387500E-7	7.776771E-3
1.388000E-7	7.821307E-3
1.388500E-7	7.862418E-3
1.389000E-7	7.889825E-3
1.389500E-7	7.882973E-3
1.390000E-7	7.855566E-3
1.390500E-7	7.824733E-3
1.391000E-7	7.800752E-3
1.391500E-7	7.759641E-3
1.392000E-7	7.701401E-3
1.392500E-7	7.653438E-3
1.393000E-7	7.564365E-3
1.393500E-7	7.447885E-3
1.394000E-7	7.365664E-3
1.394500E-7	7.280016E-3
1.395000E-7	7.177240E-3
1.395500E-7	7.108722E-3
1.396000E-7	7.064185E-3
1.396500E-7	7.016223E-3
1.397000E-7	6.995668E-3
1.397500E-7	7.009371E-3
1.398000E-7	6.999093E-3
1.398500E-7	6.999093E-3
1.399000E-7	7.023075E-3
1.399500E-7	7.040204E-3
1.400000E-7	7.047056E-3
1.400500E-7	7.074463E-3
1.401000E-7	7.095018E-3
1.401500E-7	7.098444E-3
1.402000E-7	7.129277E-3
1.402500E-7	7.166962E-3
1.403000E-7	7.197795E-3
1.403500E-7	7.252609E-3
1.404000E-7	7.324553E-3
1.404500E-7	7.410200E-3
1.405000E-7	7.512977E-3
1.405500E-7	7.608902E-3
1.406000E-7	7.677420E-3
1.406500E-7	7.739086E-3
1.407000E-7	7.763067E-3
1.407500E-7	7.752789E-3
1.408000E-7	7.728808E-3
1.408500E-7	7.694549E-3
1.409000E-7	7.629457E-3
1.409500E-7	7.536958E-3
1.410000E-7	7.458163E-3
1.410500E-7	7.406774E-3
1.411000E-7	7.362238E-3
1.411500E-7	7.331405E-3
1.412000E-7	7.331405E-3
1.412500E-7	7.362238E-3
1.413000E-7	7.406774E-3
1.413500E-7	7.465015E-3
1.414000E-7	7.530106E-3
1.414500E-7	7.571217E-3
1.415000E-7	7.584921E-3
1.415500E-7	7.588347E-3
1.416000E-7	7.557514E-3
1.416500E-7	7.482144E-3
1.417000E-7	7.389645E-3
1.417500E-7	7.283442E-3
1.418000E-7	7.166962E-3
1.418500E-7	7.053908E-3
1.419000E-7	6.961409E-3
1.419500E-7	6.896317E-3
1.420000E-7	6.865484E-3
1.420500E-7	6.862058E-3
1.421000E-7	6.892891E-3
1.421500E-7	6.957983E-3
1.422000E-7	7.036778E-3
1.422500E-7	7.095018E-3
1.423000E-7	7.119000E-3
1.423500E-7	7.136129E-3
1.424000E-7	7.125851E-3
1.424500E-7	7.071037E-3
1.425000E-7	7.005945E-3
1.425500E-7	6.927150E-3
1.426000E-7	6.831225E-3
1.426500E-7	6.731874E-3
1.427000E-7	6.666782E-3
1.427500E-7	6.632523E-3
1.428000E-7	6.601690E-3
1.428500E-7	6.587987E-3
1.429000E-7	6.587987E-3
1.429500E-7	6.625671E-3
1.430000E-7	6.690763E-3
1.430500E-7	6.749003E-3
1.431000E-7	6.796966E-3
1.431500E-7	6.858632E-3
1.432000E-7	6.903169E-3
1.432500E-7	6.899743E-3
1.433000E-7	6.896317E-3
1.433500E-7	6.892891E-3
1.434000E-7	6.872336E-3
1.434500E-7	6.851780E-3
1.435000E-7	6.862058E-3
1.435500E-7	6.855206E-3
1.436000E-7	6.838077E-3
1.436500E-7	6.855206E-3
1.437000E-7	6.892891E-3
1.437500E-7	6.910020E-3
1.438000E-7	6.916872E-3
1.438500E-7	6.920298E-3
1.439000E-7	6.923724E-3
1.439500E-7	6.927150E-3
1.440000E-7	6.910020E-3
1.440500E-7	6.886039E-3
1.441000E-7	6.889465E-3
1.441500E-7	6.892891E-3
1.442000E-7	6.882613E-3
1.442500E-7	6.882613E-3
1.443000E-7	6.879187E-3
1.443500E-7	6.875761E-3
1.444000E-7	6.899743E-3
1.444500E-7	6.940853E-3
1.445000E-7	6.937427E-3
1.445500E-7	6.910020E-3
1.446000E-7	6.906594E-3
1.446500E-7	6.896317E-3
1.447000E-7	6.865484E-3
1.447500E-7	6.844928E-3
1.448000E-7	6.831225E-3
1.448500E-7	6.814095E-3
1.449000E-7	6.824373E-3
1.449500E-7	6.872336E-3
1.450000E-7	6.910020E-3
1.450500E-7	6.930576E-3
1.451000E-7	6.954557E-3
1.451500E-7	6.951131E-3
1.452000E-7	6.930576E-3
1.452500E-7	6.906594E-3
1.453000E-7	6.872336E-3
1.453500E-7	6.810670E-3
1.454000E-7	6.738726E-3
1.454500E-7	6.656504E-3
1.455000E-7	6.577709E-3
1.455500E-7	6.495488E-3
1.456000E-7	6.426970E-3
1.456500E-7	6.385859E-3
1.457000E-7	6.379007E-3
1.457500E-7	6.375581E-3
1.458000E-7	6.389285E-3
1.458500E-7	6.433822E-3
1.459000E-7	6.516043E-3
1.459500E-7	6.587987E-3
1.460000E-7	6.625671E-3
1.460500E-7	6.677060E-3
1.461000E-7	6.745578E-3
1.461500E-7	6.800392E-3
1.462000E-7	6.844928E-3
1.462500E-7	6.896317E-3
1.463000E-7	6.920298E-3
1.463500E-7	6.947705E-3
1.464000E-7	6.981964E-3
1.464500E-7	6.968260E-3
1.465000E-7	6.916872E-3
1.465500E-7	6.875761E-3
1.466000E-7	6.855206E-3
1.466500E-7	6.814095E-3
1.467000E-7	6.762707E-3
1.467500E-7	6.718170E-3
1.468000E-7	6.677060E-3
1.468500E-7	6.659930E-3
1.469000E-7	6.670208E-3
1.469500E-7	6.680486E-3
1.470000E-7	6.690763E-3
1.470500E-7	6.711319E-3
1.471000E-7	6.735300E-3
1.471500E-7	6.759281E-3
1.472000E-7	6.776411E-3
1.472500E-7	6.772985E-3
1.473000E-7	6.749003E-3
1.473500E-7	6.721596E-3
1.474000E-7	6.687337E-3
1.474500E-7	6.642801E-3
1.475000E-7	6.622246E-3
1.475500E-7	6.625671E-3
1.476000E-7	6.642801E-3
1.476500E-7	6.694189E-3
1.477000E-7	6.769559E-3
1.477500E-7	6.820947E-3
1.478000E-7	6.862058E-3
1.478500E-7	6.920298E-3
1.479000E-7	6.968260E-3
1.479500E-7	6.992242E-3
1.480000E-7	6.981964E-3
1.480500E-7	6.961409E-3
1.481000E-7	6.944279E-3
1.481500E-7	6.899743E-3
1.482000E-7	6.834651E-3
1.482500E-7	6.779837E-3
1.483000E-7	6.721596E-3
1.483500E-7	6.656504E-3
1.484000E-7	6.629097E-3
1.484500E-7	6.618820E-3
1.485000E-7	6.611968E-3
1.485500E-7	6.653079E-3
1.486000E-7	6.725022E-3
1.486500E-7	6.755855E-3
1.487000E-7	6.790114E-3
1.487500E-7	6.848354E-3
1.488000E-7	6.865484E-3
1.488500E-7	6.831225E-3
1.489000E-7	6.793540E-3
1.489500E-7	6.742152E-3
1.490000E-7	6.653079E-3
1.490500E-7	6.540024E-3
1.491000E-7	6.402989E-3
1.491500E-7	6.259101E-3
1.492000E-7	6.118640E-3
1.492500E-7	5.985030E-3
1.493000E-7	5.875402E-3
1.493500E-7	5.817161E-3
1.494000E-7	5.810310E-3
1.494500E-7	5.837717E-3
1.495000E-7	5.902809E-3
1.495500E-7	5.988456E-3
1.496000E-7	6.067251E-3
1.496500E-7	6.152899E-3
1.497000E-7	6.255675E-3
1.497500E-7	6.341323E-3
1.498000E-7	6.389285E-3
1.498500E-7	6.420118E-3
1.499000E-7	6.433822E-3
1.499500E-7	6.423544E-3
1.500000E-7	6.406414E-3
1.500500E-7	6.389285E-3
1.501000E-7	6.365304E-3
1.501500E-7	6.348174E-3
1.502000E-7	6.341323E-3
1.502500E-7	6.327619E-3
1.503000E-7	6.293360E-3
1.503500E-7	6.259101E-3
1.504000E-7	6.245398E-3
1.504500E-7	6.228268E-3
1.505000E-7	6.194009E-3
1.505500E-7	6.146047E-3
1.506000E-7	6.115214E-3
1.506500E-7	6.080955E-3
1.507000E-7	6.036418E-3
1.507500E-7	5.981604E-3
1.508000E-7	5.919938E-3
1.508500E-7	5.892531E-3
1.509000E-7	5.902809E-3
1.509500E-7	5.895957E-3
1.510000E-7	5.889105E-3
1.510500E-7	5.916512E-3
1.511000E-7	5.964475E-3
1.511500E-7	5.991882E-3
1.512000E-7	6.026141E-3
1.512500E-7	6.070677E-3
1.513000E-7	6.080955E-3
1.513500E-7	6.063825E-3
1.514000E-7	6.039844E-3
1.514500E-7	6.012437E-3
1.515000E-7	5.978178E-3
1.515500E-7	5.950771E-3
1.516000E-7	5.930216E-3
1.516500E-7	5.930216E-3
1.517000E-7	5.937068E-3
1.517500E-7	5.923364E-3
1.518000E-7	5.906235E-3
1.518500E-7	5.913086E-3
1.519000E-7	5.892531E-3
1.519500E-7	5.865124E-3
1.520000E-7	5.885679E-3
1.520500E-7	5.892531E-3
1.521000E-7	5.834291E-3
1.521500E-7	5.782902E-3
1.522000E-7	5.755495E-3
1.522500E-7	5.697255E-3
1.523000E-7	5.662996E-3
1.523500E-7	5.656145E-3
1.524000E-7	5.642441E-3
1.524500E-7	5.652719E-3
1.525000E-7	5.704107E-3
1.525500E-7	5.731514E-3
1.526000E-7	5.734940E-3
1.526500E-7	5.765773E-3
1.527000E-7	5.806884E-3
1.527500E-7	5.847994E-3
1.528000E-7	5.875402E-3
1.528500E-7	5.865124E-3
1.529000E-7	5.847994E-3
1.529500E-7	5.875402E-3
1.530000E-7	5.909660E-3
1.530500E-7	5.892531E-3
1.531000E-7	5.868550E-3
1.531500E-7	5.871976E-3
1.532000E-7	5.885679E-3
1.532500E-7	5.909660E-3
1.533000E-7	5.947345E-3
1.533500E-7	5.971326E-3
1.534000E-7	5.981604E-3
1.534500E-7	5.991882E-3
1.535000E-7	5.998734E-3
1.535500E-7	5.978178E-3
1.536000E-7	5.940493E-3
1.536500E-7	5.889105E-3
1.537000E-7	5.793180E-3
1.537500E-7	5.697255E-3
1.538000E-7	5.635589E-3
1.538500E-7	5.570497E-3
1.539000E-7	5.508831E-3
1.539500E-7	5.495128E-3
1.540000E-7	5.498554E-3
1.540500E-7	5.484850E-3
1.541000E-7	5.484850E-3
1.541500E-7	5.505405E-3
1.542000E-7	5.539664E-3
1.542500E-7	5.580775E-3
1.543000E-7	5.615034E-3
1.543500E-7	5.625312E-3
1.544000E-7	5.608182E-3
1.544500E-7	5.587627E-3
1.545000E-7	5.567071E-3
1.545500E-7	5.546516E-3
1.546000E-7	5.536238E-3
1.546500E-7	5.546516E-3
1.547000E-7	5.570497E-3
1.547500E-7	5.608182E-3
1.548000E-7	5.676700E-3
1.548500E-7	5.758921E-3
1.549000E-7	5.837717E-3
1.549500E-7	5.923364E-3
1.550000E-7	5.998734E-3
1.550500E-7	6.036418E-3
1.551000E-7	6.050122E-3
1.551500E-7	6.043270E-3
1.552000E-7	6.012437E-3
1.552500E-7	5.947345E-3
1.553000E-7	5.889105E-3
1.553500E-7	5.834291E-3
1.554000E-7	5.765773E-3
1.554500E-7	5.710959E-3
1.555000E-7	5.710959E-3
1.555500E-7	5.728088E-3
1.556000E-7	5.728088E-3
1.556500E-7	5.697255E-3
1.557000E-7	5.659570E-3
1.557500E-7	5.632163E-3
1.558000E-7	5.604756E-3
1.558500E-7	5.536238E-3
1.559000E-7	5.454017E-3
1.559500E-7	5.385499E-3
1.560000E-7	5.327259E-3
1.560500E-7	5.279297E-3
1.561000E-7	5.258741E-3
1.561500E-7	5.258741E-3
1.562000E-7	5.289574E-3
1.562500E-7	5.368370E-3
1.563000E-7	5.454017E-3
1.563500E-7	5.505405E-3
1.564000E-7	5.546516E-3
1.564500E-7	5.604756E-3
1.565000E-7	5.618460E-3
1.565500E-7	5.594479E-3
1.566000E-7	5.563646E-3
1.566500E-7	5.495128E-3
1.567000E-7	5.382073E-3
1.567500E-7	5.293000E-3
1.568000E-7	5.227908E-3
1.568500E-7	5.155965E-3
1.569000E-7	5.108002E-3
1.569500E-7	5.118280E-3
1.570000E-7	5.138835E-3
1.570500E-7	5.173094E-3
1.571000E-7	5.234760E-3
1.571500E-7	5.286148E-3
1.572000E-7	5.340963E-3
1.572500E-7	5.423184E-3
1.573000E-7	5.488276E-3
1.573500E-7	5.525961E-3
1.574000E-7	5.543090E-3
1.574500E-7	5.546516E-3
1.575000E-7	5.539664E-3
1.575500E-7	5.536238E-3
1.576000E-7	5.532813E-3
1.576500E-7	5.488276E-3
1.577000E-7	5.423184E-3
1.577500E-7	5.388925E-3
1.578000E-7	5.358092E-3
1.578500E-7	5.299852E-3
1.579000E-7	5.231334E-3
1.579500E-7	5.183372E-3
1.580000E-7	5.149113E-3
1.580500E-7	5.135409E-3
1.581000E-7	5.149113E-3
1.581500E-7	5.169668E-3
1.582000E-7	5.186798E-3
1.582500E-7	5.224482E-3
1.583000E-7	5.286148E-3
1.583500E-7	5.344389E-3
1.584000E-7	5.385499E-3
1.584500E-7	5.426610E-3
1.585000E-7	5.467721E-3
1.585500E-7	5.501979E-3
1.586000E-7	5.529387E-3
1.586500E-7	5.556794E-3
1.587000E-7	5.560220E-3
1.587500E-7	5.536238E-3
1.588000E-7	5.488276E-3
1.588500E-7	5.440313E-3
1.589000E-7	5.388925E-3
1.589500E-7	5.327259E-3
1.590000E-7	5.272445E-3
1.590500E-7	5.251890E-3
1.591000E-7	5.248464E-3
1.591500E-7	5.221057E-3
1.592000E-7	5.193649E-3
1.592500E-7	5.227908E-3
1.593000E-7	5.296426E-3
1.593500E-7	5.354666E-3
1.594000E-7	5.419758E-3
1.594500E-7	5.501979E-3
1.595000E-7	5.563646E-3
1.595500E-7	5.577349E-3
1.596000E-7	5.580775E-3
1.596500E-7	5.570497E-3
1.597000E-7	5.529387E-3
1.597500E-7	5.477998E-3
1.598000E-7	5.423184E-3
1.598500E-7	5.323833E-3
1.599000E-7	5.210779E-3
1.599500E-7	5.135409E-3
1.600000E-7	5.063466E-3
1.600500E-7	4.991522E-3
1.601000E-7	4.960689E-3
1.601500E-7	4.977818E-3
1.602000E-7	5.018929E-3
1.602500E-7	5.101150E-3
1.603000E-7	5.197075E-3
1.603500E-7	5.286148E-3
1.604000E-7	5.375222E-3
1.604500E-7	5.457443E-3
1.605000E-7	5.501979E-3
1.605500E-7	5.525961E-3
1.606000E-7	5.532813E-3
1.606500E-7	5.498554E-3
1.607000E-7	5.430036E-3
1.607500E-7	5.358092E-3
1.608000E-7	5.272445E-3
1.608500E-7	5.159390E-3
1.609000E-7	5.053188E-3
1.609500E-7	4.977818E-3
1.610000E-7	4.905875E-3
1.610500E-7	4.833931E-3
1.611000E-7	4.796246E-3
1.611500E-7	4.789394E-3
1.612000E-7	4.782543E-3
1.612500E-7	4.803098E-3
1.613000E-7	4.857912E-3
1.613500E-7	4.909301E-3
1.614000E-7	4.970967E-3
1.614500E-7	5.066891E-3
1.615000E-7	5.145687E-3
1.615500E-7	5.231334E-3
1.616000E-7	5.344389E-3
1.616500E-7	5.450591E-3
1.617000E-7	5.525961E-3
1.617500E-7	5.584201E-3
1.618000E-7	5.642441E-3
1.618500E-7	5.669848E-3
1.619000E-7	5.645867E-3
1.619500E-7	5.601330E-3
1.620000E-7	5.563646E-3
1.620500E-7	5.495128E-3
1.621000E-7	5.395777E-3
1.621500E-7	5.310130E-3
1.622000E-7	5.238186E-3
1.622500E-7	5.142261E-3
1.623000E-7	5.056614E-3
1.623500E-7	5.005225E-3
1.624000E-7	4.970967E-3
1.624500E-7	4.933282E-3
1.625000E-7	4.909301E-3
1.625500E-7	4.902449E-3
1.626000E-7	4.909301E-3
1.626500E-7	4.919578E-3
1.627000E-7	4.926430E-3
1.627500E-7	4.950411E-3
1.628000E-7	4.991522E-3
1.628500E-7	5.042910E-3
1.629000E-7	5.111428E-3
1.629500E-7	5.190224E-3
1.630000E-7	5.255315E-3
1.630500E-7	5.313556E-3
1.631000E-7	5.388925E-3
1.631500E-7	5.467721E-3
1.632000E-7	5.532813E-3
1.632500E-7	5.560220E-3
1.633000E-7	5.567071E-3
1.633500E-7	5.577349E-3
1.634000E-7	5.587627E-3
1.634500E-7	5.587627E-3
1.635000E-7	5.577349E-3
1.635500E-7	5.573923E-3
1.636000E-7	5.549942E-3
1.636500E-7	5.488276E-3
1.637000E-7	5.423184E-3
1.637500E-7	5.358092E-3
1.638000E-7	5.275871E-3
1.638500E-7	5.193649E-3
1.639000E-7	5.142261E-3
1.639500E-7	5.066891E-3
1.640000E-7	4.977818E-3
1.640500E-7	4.916152E-3
1.641000E-7	4.868190E-3
1.641500E-7	4.806524E-3
1.642000E-7	4.758561E-3
1.642500E-7	4.720877E-3
1.643000E-7	4.703747E-3
1.643500E-7	4.720877E-3
1.644000E-7	4.761987E-3
1.644500E-7	4.796246E-3
1.645000E-7	4.861338E-3
1.645500E-7	4.933282E-3
1.646000E-7	4.977818E-3
1.646500E-7	4.988096E-3
1.647000E-7	4.988096E-3
1.647500E-7	4.998374E-3
1.648000E-7	5.012077E-3
1.648500E-7	5.001800E-3
1.649000E-7	4.970967E-3
1.649500E-7	4.950411E-3
1.650000E-7	4.936708E-3
1.650500E-7	4.912726E-3
1.651000E-7	4.885319E-3
1.651500E-7	4.875042E-3
1.652000E-7	4.864764E-3
1.652500E-7	4.875042E-3
1.653000E-7	4.912726E-3
1.653500E-7	4.929856E-3
1.654000E-7	4.929856E-3
1.654500E-7	4.950411E-3
1.655000E-7	4.964115E-3
1.655500E-7	4.943559E-3
1.656000E-7	4.943559E-3
1.656500E-7	4.960689E-3
1.657000E-7	4.940134E-3
1.657500E-7	4.933282E-3
1.658000E-7	4.977818E-3
1.658500E-7	5.001800E-3
1.659000E-7	4.991522E-3
1.659500E-7	5.001800E-3
1.660000E-7	5.029207E-3
1.660500E-7	5.049762E-3
1.661000E-7	5.070317E-3
1.661500E-7	5.063466E-3
1.662000E-7	5.032633E-3
1.662500E-7	5.015503E-3
1.663000E-7	5.001800E-3
1.663500E-7	4.964115E-3
1.664000E-7	4.919578E-3
1.664500E-7	4.895597E-3
1.665000E-7	4.878468E-3
1.665500E-7	4.868190E-3
1.666000E-7	4.871616E-3
1.666500E-7	4.895597E-3
1.667000E-7	4.933282E-3
1.667500E-7	4.960689E-3
1.668000E-7	4.998374E-3
1.668500E-7	5.063466E-3
1.669000E-7	5.125132E-3
1.669500E-7	5.155965E-3
1.670000E-7	5.193649E-3
1.670500E-7	5.241612E-3
1.671000E-7	5.258741E-3
1.671500E-7	5.262167E-3
1.672000E-7	5.262167E-3
1.672500E-7	5.234760E-3
1.673000E-7	5.166242E-3
1.673500E-7	5.087447E-3
1.674000E-7	4.998374E-3
1.674500E-7	4.875042E-3
1.675000E-7	4.724302E-3
1.675500E-7	4.594119E-3
1.676000E-7	4.491342E-3
1.676500E-7	4.374862E-3
1.677000E-7	4.275511E-3
1.677500E-7	4.234400E-3
1.678000E-7	4.227548E-3
1.678500E-7	4.241252E-3
1.679000E-7	4.292640E-3
1.679500E-7	4.381713E-3
1.680000E-7	4.491342E-3
1.680500E-7	4.631803E-3
1.681000E-7	4.782543E-3
1.681500E-7	4.899023E-3
1.682000E-7	4.970967E-3
1.682500E-7	5.022355E-3
1.683000E-7	5.042910E-3
1.683500E-7	5.042910E-3
1.684000E-7	5.012077E-3
1.684500E-7	4.943559E-3
1.685000E-7	4.847634E-3
1.685500E-7	4.751710E-3
1.686000E-7	4.662636E-3
1.686500E-7	4.563286E-3
1.687000E-7	4.470787E-3
1.687500E-7	4.422824E-3
1.688000E-7	4.371436E-3
1.688500E-7	4.302918E-3
1.689000E-7	4.272085E-3
1.689500E-7	4.272085E-3
1.690000E-7	4.254956E-3
1.690500E-7	4.258381E-3
1.691000E-7	4.302918E-3
1.691500E-7	4.344029E-3
1.692000E-7	4.412546E-3
1.692500E-7	4.539304E-3
1.693000E-7	4.652359E-3
1.693500E-7	4.748284E-3
1.694000E-7	4.871616E-3
1.694500E-7	4.988096E-3
1.695000E-7	5.063466E-3
1.695500E-7	5.135409E-3
1.696000E-7	5.183372E-3
1.696500E-7	5.176520E-3
1.697000E-7	5.131983E-3
1.697500E-7	5.090873E-3
1.698000E-7	5.039484E-3
1.698500E-7	4.964115E-3
1.699000E-7	4.902449E-3
1.699500E-7	4.857912E-3
1.700000E-7	4.799672E-3
1.700500E-7	4.738006E-3
1.701000E-7	4.727728E-3
1.701500E-7	4.748284E-3
1.702000E-7	4.772265E-3
1.702500E-7	4.813376E-3
1.703000E-7	4.851060E-3
1.703500E-7	4.878468E-3
1.704000E-7	4.923004E-3
1.704500E-7	4.953837E-3
1.705000E-7	4.940134E-3
1.705500E-7	4.909301E-3
1.706000E-7	4.885319E-3
1.706500E-7	4.844209E-3
1.707000E-7	4.768839E-3
1.707500E-7	4.672914E-3
1.708000E-7	4.590693E-3
1.708500E-7	4.539304E-3
1.709000E-7	4.484490E-3
1.709500E-7	4.409121E-3
1.710000E-7	4.361158E-3
1.710500E-7	4.337177E-3
1.711000E-7	4.299492E-3
1.711500E-7	4.275511E-3
1.712000E-7	4.278937E-3
1.712500E-7	4.285789E-3
1.713000E-7	4.296066E-3
1.713500E-7	4.326899E-3
1.714000E-7	4.361158E-3
1.714500E-7	4.409121E-3
1.715000E-7	4.467361E-3
1.715500E-7	4.529027E-3
1.716000E-7	4.590693E-3
1.716500E-7	4.645507E-3
1.717000E-7	4.686618E-3
1.717500E-7	4.724302E-3
1.718000E-7	4.755135E-3
1.718500E-7	4.765413E-3
1.719000E-7	4.758561E-3
1.719500E-7	4.741432E-3
1.720000E-7	4.696895E-3
1.720500E-7	4.642081E-3
1.721000E-7	4.607822E-3
1.721500E-7	4.576989E-3
1.722000E-7	4.556434E-3
1.722500E-7	4.539304E-3
1.723000E-7	4.498194E-3
1.723500E-7	4.453657E-3
1.724000E-7	4.429676E-3
1.724500E-7	4.422824E-3
1.725000E-7	4.402269E-3
1.725500E-7	4.378288E-3
1.726000E-7	4.347455E-3
1.726500E-7	4.333751E-3
1.727000E-7	4.350880E-3
1.727500E-7	4.364584E-3
1.728000E-7	4.354306E-3
1.728500E-7	4.350880E-3
1.729000E-7	4.374862E-3
1.729500E-7	4.371436E-3
1.730000E-7	4.350880E-3
1.730500E-7	4.347455E-3
1.731000E-7	4.333751E-3
1.731500E-7	4.320047E-3
1.732000E-7	4.337177E-3
1.732500E-7	4.357732E-3
1.733000E-7	4.344029E-3
1.733500E-7	4.344029E-3
1.734000E-7	4.395417E-3
1.734500E-7	4.436528E-3
1.735000E-7	4.450231E-3
1.735500E-7	4.467361E-3
1.736000E-7	4.487916E-3
1.736500E-7	4.491342E-3
1.737000E-7	4.481064E-3
1.737500E-7	4.453657E-3
1.738000E-7	4.402269E-3
1.738500E-7	4.354306E-3
1.739000E-7	4.316622E-3
1.739500E-7	4.275511E-3
1.740000E-7	4.241252E-3
1.740500E-7	4.217271E-3
1.741000E-7	4.196715E-3
1.741500E-7	4.189864E-3
1.742000E-7	4.220697E-3
1.742500E-7	4.261807E-3
1.743000E-7	4.272085E-3
1.743500E-7	4.275511E-3
1.744000E-7	4.326899E-3
1.744500E-7	4.388565E-3
1.745000E-7	4.443379E-3
1.745500E-7	4.494768E-3
1.746000E-7	4.535878E-3
1.746500E-7	4.573563E-3
1.747000E-7	4.624952E-3
1.747500E-7	4.672914E-3
1.748000E-7	4.690044E-3
1.748500E-7	4.683192E-3
1.749000E-7	4.693469E-3
1.749500E-7	4.703747E-3
1.750000E-7	4.669488E-3
1.750500E-7	4.624952E-3
1.751000E-7	4.614674E-3
1.751500E-7	4.576989E-3
1.752000E-7	4.505045E-3
1.752500E-7	4.460509E-3
1.753000E-7	4.412546E-3
1.753500E-7	4.333751E-3
1.754000E-7	4.272085E-3
1.754500E-7	4.224122E-3
1.755000E-7	4.148753E-3
1.755500E-7	4.087087E-3
1.756000E-7	4.059680E-3
1.756500E-7	4.021995E-3
1.757000E-7	3.994588E-3
1.757500E-7	3.998014E-3
1.758000E-7	3.998014E-3
1.758500E-7	4.008291E-3
1.759000E-7	4.059680E-3
1.759500E-7	4.107642E-3
1.760000E-7	4.145327E-3
1.760500E-7	4.230974E-3
1.761000E-7	4.323473E-3
1.761500E-7	4.374862E-3
1.762000E-7	4.422824E-3
1.762500E-7	4.477638E-3
1.763000E-7	4.518749E-3
1.763500E-7	4.559860E-3
1.764000E-7	4.583841E-3
1.764500E-7	4.580415E-3
1.765000E-7	4.563286E-3
1.765500E-7	4.556434E-3
1.766000E-7	4.532453E-3
1.766500E-7	4.501620E-3
1.767000E-7	4.508471E-3
1.767500E-7	4.494768E-3
1.768000E-7	4.446805E-3
1.768500E-7	4.443379E-3
1.769000E-7	4.429676E-3
1.769500E-7	4.354306E-3
1.770000E-7	4.299492E-3
1.770500E-7	4.265233E-3
1.771000E-7	4.186438E-3
1.771500E-7	4.111068E-3
1.772000E-7	4.097365E-3
1.772500E-7	4.083661E-3
1.773000E-7	4.063106E-3
1.773500E-7	4.083661E-3
1.774000E-7	4.107642E-3
1.774500E-7	4.138475E-3
1.775000E-7	4.206993E-3
1.775500E-7	4.268659E-3
1.776000E-7	4.282363E-3
1.776500E-7	4.292640E-3
1.777000E-7	4.306344E-3
1.777500E-7	4.292640E-3
1.778000E-7	4.285789E-3
1.778500E-7	4.278937E-3
1.779000E-7	4.234400E-3
1.779500E-7	4.186438E-3
1.780000E-7	4.159031E-3
1.780500E-7	4.138475E-3
1.781000E-7	4.114494E-3
1.781500E-7	4.131623E-3
1.782000E-7	4.162456E-3
1.782500E-7	4.179586E-3
1.783000E-7	4.196715E-3
1.783500E-7	4.224122E-3
1.784000E-7	4.248104E-3
1.784500E-7	4.265233E-3
1.785000E-7	4.282363E-3
1.785500E-7	4.292640E-3
1.786000E-7	4.292640E-3
1.786500E-7	4.272085E-3
1.787000E-7	4.244678E-3
1.787500E-7	4.217271E-3
1.788000E-7	4.200141E-3
1.788500E-7	4.193289E-3
1.789000E-7	4.179586E-3
1.789500E-7	4.159031E-3
1.790000E-7	4.128198E-3
1.790500E-7	4.080235E-3
1.791000E-7	4.049402E-3
1.791500E-7	4.028847E-3
1.792000E-7	4.001440E-3
1.792500E-7	3.953477E-3
1.793000E-7	3.908941E-3
1.793500E-7	3.888385E-3
1.794000E-7	3.874682E-3
1.794500E-7	3.864404E-3
1.795000E-7	3.860978E-3
1.795500E-7	3.895237E-3
1.796000E-7	3.929496E-3
1.796500E-7	3.936348E-3
1.797000E-7	3.956903E-3
1.797500E-7	4.025421E-3
1.798000E-7	4.100790E-3
1.798500E-7	4.128198E-3
1.799000E-7	4.148753E-3
1.799500E-7	4.200141E-3
1.800000E-7	4.224122E-3
1.800500E-7	4.179586E-3
1.801000E-7	4.124772E-3
1.801500E-7	4.087087E-3
1.802000E-7	4.021995E-3
1.802500E-7	3.929496E-3
1.803000E-7	3.850700E-3
1.803500E-7	3.768479E-3
1.804000E-7	3.696535E-3
1.804500E-7	3.655425E-3
1.805000E-7	3.631444E-3
1.805500E-7	3.641721E-3
1.806000E-7	3.679406E-3
1.806500E-7	3.730794E-3
1.807000E-7	3.789034E-3
1.807500E-7	3.871256E-3
1.808000E-7	3.950051E-3
1.808500E-7	3.991162E-3
1.809000E-7	4.018569E-3
1.809500E-7	4.049402E-3
1.810000E-7	4.059680E-3
1.810500E-7	4.028847E-3
1.811000E-7	3.967181E-3
1.811500E-7	3.888385E-3
1.812000E-7	3.806164E-3
1.812500E-7	3.723943E-3
1.813000E-7	3.638295E-3
1.813500E-7	3.580055E-3
1.814000E-7	3.535519E-3
1.814500E-7	3.490982E-3
1.815000E-7	3.456723E-3
1.815500E-7	3.439594E-3
1.816000E-7	3.429316E-3
1.816500E-7	3.415612E-3
1.817000E-7	3.405335E-3
1.817500E-7	3.405335E-3
1.818000E-7	3.425890E-3
1.818500E-7	3.429316E-3
1.819000E-7	3.415612E-3
1.819500E-7	3.432742E-3
1.820000E-7	3.490982E-3
1.820500E-7	3.549222E-3
1.821000E-7	3.621166E-3
1.821500E-7	3.699961E-3
1.822000E-7	3.765053E-3
1.822500E-7	3.833571E-3
1.823000E-7	3.915792E-3
1.823500E-7	3.960329E-3
1.824000E-7	3.977458E-3
1.824500E-7	3.987736E-3
1.825000E-7	3.960329E-3
1.825500E-7	3.915792E-3
1.826000E-7	3.871256E-3
1.826500E-7	3.789034E-3
1.827000E-7	3.696535E-3
1.827500E-7	3.641721E-3
1.828000E-7	3.604036E-3
1.828500E-7	3.542370E-3
1.829000E-7	3.501260E-3
1.829500E-7	3.497834E-3
1.830000E-7	3.473853E-3
1.830500E-7	3.449871E-3
1.831000E-7	3.490982E-3
1.831500E-7	3.538944E-3
1.832000E-7	3.535519E-3
1.832500E-7	3.549222E-3
1.833000E-7	3.610888E-3
1.833500E-7	3.651999E-3
1.834000E-7	3.682832E-3
1.834500E-7	3.727368E-3
1.835000E-7	3.744498E-3
1.835500E-7	3.744498E-3
1.836000E-7	3.747924E-3
1.836500E-7	3.734220E-3
1.837000E-7	3.696535E-3
1.837500E-7	3.669128E-3
1.838000E-7	3.648573E-3
1.838500E-7	3.597185E-3
1.839000E-7	3.538944E-3
1.839500E-7	3.514963E-3
1.840000E-7	3.514963E-3
1.840500E-7	3.532093E-3
1.841000E-7	3.559500E-3
1.841500E-7	3.593759E-3
1.842000E-7	3.634869E-3
1.842500E-7	3.672554E-3
1.843000E-7	3.710239E-3
1.843500E-7	3.758201E-3
1.844000E-7	3.799312E-3
1.844500E-7	3.826719E-3
1.845000E-7	3.847275E-3
1.845500E-7	3.884959E-3
1.846000E-7	3.919218E-3
1.846500E-7	3.963755E-3
1.847000E-7	4.018569E-3
1.847500E-7	4.063106E-3
1.848000E-7	4.104216E-3
1.848500E-7	4.135049E-3
1.849000E-7	4.117920E-3
1.849500E-7	4.083661E-3
1.850000E-7	4.056254E-3
1.850500E-7	4.001440E-3
1.851000E-7	3.922644E-3
1.851500E-7	3.854126E-3
1.852000E-7	3.768479E-3
1.852500E-7	3.658851E-3
1.853000E-7	3.597185E-3
1.853500E-7	3.600610E-3
1.854000E-7	3.607462E-3
1.854500E-7	3.617740E-3
1.855000E-7	3.645147E-3
1.855500E-7	3.655425E-3
1.856000E-7	3.672554E-3
1.856500E-7	3.713665E-3
1.857000E-7	3.727368E-3
1.857500E-7	3.686258E-3
1.858000E-7	3.651999E-3
1.858500E-7	3.641721E-3
1.859000E-7	3.631444E-3
1.859500E-7	3.634869E-3
1.860000E-7	3.651999E-3
1.860500E-7	3.689684E-3
1.861000E-7	3.751350E-3
1.861500E-7	3.816442E-3
1.862000E-7	3.854126E-3
1.862500E-7	3.898663E-3
1.863000E-7	3.960329E-3
1.863500E-7	3.994588E-3
1.864000E-7	3.967181E-3
1.864500E-7	3.922644E-3
1.865000E-7	3.891811E-3
1.865500E-7	3.836997E-3
1.866000E-7	3.737646E-3
1.866500E-7	3.638295E-3
1.867000E-7	3.569777E-3
1.867500E-7	3.521815E-3
1.868000E-7	3.497834E-3
1.868500E-7	3.484130E-3
1.869000E-7	3.504686E-3
1.869500E-7	3.583481E-3
1.870000E-7	3.682832E-3
1.870500E-7	3.754776E-3
1.871000E-7	3.792460E-3
1.871500E-7	3.840423E-3
1.872000E-7	3.884959E-3
1.872500E-7	3.878108E-3
1.873000E-7	3.860978E-3
1.873500E-7	3.857552E-3
1.874000E-7	3.816442E-3
1.874500E-7	3.768479E-3
1.875000E-7	3.768479E-3
1.875500E-7	3.765053E-3
1.876000E-7	3.713665E-3
1.876500E-7	3.696535E-3
1.877000E-7	3.727368E-3
1.877500E-7	3.737646E-3
1.878000E-7	3.720517E-3
1.878500E-7	3.727368E-3
1.879000E-7	3.730794E-3
1.879500E-7	3.717091E-3
1.880000E-7	3.730794E-3
1.880500E-7	3.751350E-3
1.881000E-7	3.741072E-3
1.881500E-7	3.730794E-3
1.882000E-7	3.751350E-3
1.882500E-7	3.768479E-3
1.883000E-7	3.771905E-3
1.883500E-7	3.771905E-3
1.884000E-7	3.765053E-3
1.884500E-7	3.741072E-3
1.885000E-7	3.679406E-3
1.885500E-7	3.597185E-3
1.886000E-7	3.535519E-3
1.886500E-7	3.460149E-3
1.887000E-7	3.374502E-3
1.887500E-7	3.316262E-3
1.888000E-7	3.288854E-3
1.888500E-7	3.275151E-3
1.889000E-7	3.288854E-3
1.889500E-7	3.329965E-3
1.890000E-7	3.391631E-3
1.890500E-7	3.470427E-3
1.891000E-7	3.569777E-3
1.891500E-7	3.655425E-3
1.892000E-7	3.717091E-3
1.892500E-7	3.765053E-3
1.893000E-7	3.789034E-3
1.893500E-7	3.771905E-3
1.894000E-7	3.720517E-3
1.894500E-7	3.645147E-3
1.895000E-7	3.573203E-3
1.895500E-7	3.501260E-3
1.896000E-7	3.432742E-3
1.896500E-7	3.353946E-3
1.897000E-7	3.275151E-3
1.897500E-7	3.206633E-3
1.898000E-7	3.151819E-3
1.898500E-7	3.090153E-3
1.899000E-7	3.042190E-3
1.899500E-7	3.028487E-3
1.900000E-7	3.025061E-3
1.900500E-7	3.014783E-3
1.901000E-7	3.018209E-3
1.901500E-7	3.059320E-3
1.902000E-7	3.134689E-3
1.902500E-7	3.227188E-3
1.903000E-7	3.343669E-3
1.903500E-7	3.484130E-3
1.904000E-7	3.631444E-3
1.904500E-7	3.765053E-3
1.905000E-7	3.867830E-3
1.905500E-7	3.943200E-3
1.906000E-7	3.991162E-3
1.906500E-7	4.011717E-3
1.907000E-7	3.991162E-3
1.907500E-7	3.922644E-3
1.908000E-7	3.816442E-3
1.908500E-7	3.699961E-3
1.909000E-7	3.621166E-3
1.909500E-7	3.576629E-3
1.910000E-7	3.538944E-3
1.910500E-7	3.518389E-3
1.911000E-7	3.562926E-3
1.911500E-7	3.631444E-3
1.912000E-7	3.693110E-3
1.912500E-7	3.761627E-3
1.913000E-7	3.823293E-3
1.913500E-7	3.840423E-3
1.914000E-7	3.840423E-3
1.914500E-7	3.816442E-3
1.915000E-7	3.703387E-3
1.915500E-7	3.576629E-3
1.916000E-7	3.494408E-3
1.916500E-7	3.398483E-3
1.917000E-7	3.285429E-3
1.917500E-7	3.237466E-3
1.918000E-7	3.227188E-3
1.918500E-7	3.227188E-3
1.919000E-7	3.261447E-3
1.919500E-7	3.319688E-3
1.920000E-7	3.364224E-3
1.920500E-7	3.412187E-3
1.921000E-7	3.463575E-3
1.921500E-7	3.484130E-3
1.922000E-7	3.470427E-3
1.922500E-7	3.412187E-3
1.923000E-7	3.299132E-3
1.923500E-7	3.158671E-3
1.924000E-7	3.021635E-3
1.924500E-7	2.891451E-3
1.925000E-7	2.785249E-3
1.925500E-7	2.703027E-3
1.926000E-7	2.651639E-3
1.926500E-7	2.651639E-3
1.927000E-7	2.716731E-3
1.927500E-7	2.812656E-3
1.928000E-7	2.929136E-3
1.928500E-7	3.042190E-3
1.929000E-7	3.141541E-3
1.929500E-7	3.220337E-3
1.930000E-7	3.288854E-3
1.930500E-7	3.316262E-3
1.931000E-7	3.326539E-3
1.931500E-7	3.336817E-3
1.932000E-7	3.316262E-3
1.932500E-7	3.275151E-3
1.933000E-7	3.251170E-3
1.933500E-7	3.227188E-3
1.934000E-7	3.210059E-3
1.934500E-7	3.210059E-3
1.935000E-7	3.237466E-3
1.935500E-7	3.288854E-3
1.936000E-7	3.350521E-3
1.936500E-7	3.395057E-3
1.937000E-7	3.422464E-3
1.937500E-7	3.449871E-3
1.938000E-7	3.490982E-3
1.938500E-7	3.518389E-3
1.939000E-7	3.525241E-3
1.939500E-7	3.532093E-3
1.940000E-7	3.542370E-3
1.940500E-7	3.535519E-3
1.941000E-7	3.538944E-3
1.941500E-7	3.535519E-3
1.942000E-7	3.508111E-3
1.942500E-7	3.480704E-3
1.943000E-7	3.463575E-3
1.943500E-7	3.408761E-3
1.944000E-7	3.319688E-3
1.944500E-7	3.237466E-3
1.945000E-7	3.138115E-3
1.945500E-7	3.011357E-3
1.946000E-7	2.901729E-3
1.946500E-7	2.809230E-3
1.947000E-7	2.713305E-3
1.947500E-7	2.644787E-3
1.948000E-7	2.631084E-3
1.948500E-7	2.644787E-3
1.949000E-7	2.703027E-3
1.949500E-7	2.809230E-3
1.950000E-7	2.932562E-3
1.950500E-7	3.062746E-3
1.951000E-7	3.182652E-3
1.951500E-7	3.288854E-3
1.952000E-7	3.391631E-3
1.952500E-7	3.470427E-3
1.953000E-7	3.467001E-3
1.953500E-7	3.422464E-3
1.954000E-7	3.384779E-3
1.954500E-7	3.323113E-3
1.955000E-7	3.213485E-3
1.955500E-7	3.093579E-3
1.956000E-7	3.004506E-3
1.956500E-7	2.925710E-3
1.957000E-7	2.836637E-3
1.957500E-7	2.757842E-3
1.958000E-7	2.716731E-3
1.958500E-7	2.709879E-3
1.959000E-7	2.699601E-3
1.959500E-7	2.685898E-3
1.960000E-7	2.699601E-3
1.960500E-7	2.709879E-3
1.961000E-7	2.709879E-3
1.961500E-7	2.713305E-3
1.962000E-7	2.716731E-3
1.962500E-7	2.723583E-3
1.963000E-7	2.740712E-3
1.963500E-7	2.778397E-3
1.964000E-7	2.833211E-3
1.964500E-7	2.905155E-3
1.965000E-7	2.963395E-3
1.965500E-7	3.014783E-3
1.966000E-7	3.055894E-3
1.966500E-7	3.103856E-3
1.967000E-7	3.144967E-3
1.967500E-7	3.151819E-3
1.968000E-7	3.144967E-3
1.968500E-7	3.131264E-3
1.969000E-7	3.100431E-3
1.969500E-7	3.076449E-3
1.970000E-7	3.066172E-3
1.970500E-7	3.038765E-3
1.971000E-7	2.987376E-3
1.971500E-7	2.963395E-3
1.972000E-7	2.959969E-3
1.972500E-7	2.925710E-3
1.973000E-7	2.898303E-3
1.973500E-7	2.894877E-3
1.974000E-7	2.877748E-3
1.974500E-7	2.846915E-3
1.975000E-7	2.829785E-3
1.975500E-7	2.812656E-3
1.976000E-7	2.795526E-3
1.976500E-7	2.785249E-3
1.977000E-7	2.785249E-3
1.977500E-7	2.781823E-3
1.978000E-7	2.778397E-3
1.978500E-7	2.774971E-3
1.979000E-7	2.761267E-3
1.979500E-7	2.747564E-3
1.980000E-7	2.754416E-3
1.980500E-7	2.740712E-3
1.981000E-7	2.709879E-3
1.981500E-7	2.696176E-3
1.982000E-7	2.692750E-3
1.982500E-7	2.675620E-3
1.983000E-7	2.665342E-3
1.983500E-7	2.689324E-3
1.984000E-7	2.720157E-3
1.984500E-7	2.754416E-3
1.985000E-7	2.802378E-3
1.985500E-7	2.850341E-3
1.986000E-7	2.891451E-3
1.986500E-7	2.935988E-3
1.987000E-7	2.977098E-3
1.987500E-7	3.001080E-3
1.988000E-7	3.007932E-3
1.988500E-7	2.994228E-3
1.989000E-7	2.959969E-3
1.989500E-7	2.929136E-3
1.990000E-7	2.864044E-3
1.990500E-7	2.781823E-3
1.991000E-7	2.716731E-3
1.991500E-7	2.672194E-3
1.992000E-7	2.624232E-3
1.992500E-7	2.579695E-3
1.993000E-7	2.531733E-3
1.993500E-7	2.476919E-3
1.994000E-7	2.439234E-3
1.994500E-7	2.418678E-3
1.995000E-7	2.387845E-3
1.995500E-7	2.374142E-3
1.996000E-7	2.394697E-3
1.996500E-7	2.435808E-3
1.997000E-7	2.487196E-3
1.997500E-7	2.548862E-3
1.998000E-7	2.600251E-3
1.998500E-7	2.661917E-3
1.999000E-7	2.747564E-3
1.999500E-7	2.819508E-3
2.000000E-7	2.877748E-3
2.000500E-7	2.932562E-3
